Data from palm_tumJ_v_45_25_Reflection_00005.txt Node
Date: Fri Feb 11 15:31:20 ART 2022
User: Nati
Spectrometer: USB2E3644
Trigger mode: 4
Integration Time (sec): 3,520000E-1
Scans to average: 10
Electric dark correction enabled: true
Nonlinearity correction enabled: false
Boxcar width: 10
XAxis mode: Wavelengths
Number of Pixels in Spectrum: 2048
>>>>>Begin Spectral Data<<<<<
178,315	31,27
178,696	36,5
179,076	45,45
179,457	58,82
179,838	49,16
180,218	17,76
180,599	-138,03
180,979	110,53
181,36	132,99
181,74	115,43
182,121	73,45
182,501	76,42
182,881	77,36
183,262	71,36
183,642	69,91
184,022	65,96
184,402	68,67
184,783	68,79
185,163	69,12
185,543	77,01
185,923	80,72
186,303	80,41
186,683	81,79
187,063	85,7
187,443	91,27
187,823	91,58
188,203	93,21
188,583	95,06
188,963	96,28
189,343	94,52
189,723	97,08
190,102	102,28
190,482	102,78
190,862	102,71
191,242	105,52
191,621	111,36
192,001	112,77
192,38	113,54
192,76	113,06
193,14	113,55
193,519	112,03
193,898	112,86
194,278	114,63
194,657	116,5
195,037	117,35
195,416	116,88
195,795	119,08
196,175	119,27
196,554	118,58
196,933	120,71
197,312	123,03
197,692	122,56
198,071	121,57
198,45	122,92
198,829	125,21
199,208	125,52
199,587	123,27
199,966	123,03
200,345	122,16
200,724	120,8
201,103	121,11
201,482	120,34
201,86	119,9
202,239	120,15
202,618	118,11
202,997	117,22
203,375	118,15
203,754	116,81
204,133	117,39
204,511	118,29
204,89	118,12
205,269	118,66
205,647	119,92
206,026	122,47
206,404	124,42
206,782	123,52
207,161	124,02
207,539	124,28
207,918	125,96
208,296	126,73
208,674	129,56
209,052	131,74
209,431	133,59
209,809	131,35
210,187	128,62
210,565	131,55
210,943	131,42
211,321	128,45
211,699	127,99
212,077	125,52
212,455	120,91
212,833	119,28
213,211	114,36
213,589	110,14
213,967	106,51
214,345	101,48
214,722	99,78
215,1	98,29
215,478	95,5
215,855	93,62
216,233	92,61
216,611	91,97
216,988	91,76
217,366	90,42
217,743	90,84
218,121	93,93
218,498	97
218,876	97,16
219,253	96,87
219,631	97,24
220,008	98,89
220,385	104,54
220,762	105,9
221,14	108,98
221,517	109,31
221,894	107,88
222,271	111,3
222,648	114,54
223,025	115,37
223,402	115,54
223,78	114,62
224,157	110,62
224,533	107,5
224,91	105,51
225,287	106,84
225,664	109,83
226,041	110,85
226,418	106,44
226,795	106,37
227,171	110,28
227,548	112,55
227,925	113,45
228,301	112,18
228,678	113,99
229,055	118,06
229,431	125,16
229,808	128,03
230,184	133,22
230,561	134,26
230,937	140,42
231,313	142,31
231,69	141,23
232,066	151,93
232,442	159,85
232,819	162,13
233,195	160,34
233,571	163,4
233,947	160,34
234,323	170,61
234,699	181,41
235,075	185,61
235,451	187,41
235,827	194,13
236,203	198,25
236,579	197,58
236,955	197,65
237,331	201,74
237,707	211,2
238,083	221,85
238,459	249,82
238,834	288,19
239,21	371,8
239,586	486,96
239,961	594,38
240,337	786,27
240,713	1325,29
241,088	6211,32
241,464	-5249,18
241,839	-3108,74
242,215	-1957,06
242,59	-981,54
242,965	-383,84
243,341	-203,88
243,716	-136,31
244,091	-102,91
244,467	-81,5
244,842	-69,49
245,217	-61,31
245,592	-57,2
245,967	-59,77
246,343	-62,07
246,718	-64,47
247,093	-68,18
247,468	-69,74
247,843	-67,9
248,218	-64,06
248,593	-57,31
248,967	-52,95
249,342	-48,7
249,717	-48,4
250,092	-48,94
250,467	-52,33
250,841	-53,8
251,216	-54,26
251,591	-60
251,965	-66,42
252,34	-74,82
252,714	-87,2
253,089	-101,24
253,463	-105,81
253,838	-98
254,212	-91,96
254,587	-80,08
254,961	-72,17
255,335	-61,29
255,71	-53,55
256,084	-41,5
256,458	-35,02
256,832	-30,49
257,206	-29,01
257,581	-26,69
257,955	-24,81
258,329	-22,72
258,703	-21,3
259,077	-21,38
259,451	-21,06
259,825	-21,39
260,199	-21,42
260,572	-19,77
260,946	-18,3
261,32	-17,66
261,694	-17,01
262,068	-16,38
262,441	-16,97
262,815	-17,14
263,189	-17,65
263,562	-17,33
263,936	-18,91
264,309	-20,59
264,683	-22,92
265,056	-23,37
265,43	-22,83
265,803	-21,72
266,176	-21,27
266,55	-21,38
266,923	-20,49
267,296	-18,93
267,67	-16,8
268,043	-15,61
268,416	-14,26
268,789	-13,2
269,162	-12,29
269,535	-12,22
269,908	-11,79
270,281	-10,17
270,654	-8,49
271,027	-7,46
271,4	-7,23
271,773	-7,69
272,146	-8
272,519	-7,55
272,891	-8,3
273,264	-8,26
273,637	-9,05
274,01	-8,94
274,382	-8,79
274,755	-8,71
275,127	-9,14
275,5	-10,32
275,872	-10,41
276,245	-10,74
276,617	-10,87
276,99	-10,43
277,362	-9,45
277,734	-8,62
278,107	-9,02
278,479	-9,17
278,851	-9,51
279,223	-9,07
279,596	-8,14
279,968	-7,76
280,34	-7,22
280,712	-6,8
281,084	-6,24
281,456	-5,13
281,828	-4,55
282,2	-3,59
282,572	-3,01
282,944	-2,09
283,315	-1,06
283,687	-0,73
284,059	-0,73
284,431	-0,87
284,802	-1,54
285,174	-1,71
285,546	-1,94
285,917	-1,63
286,289	-1,61
286,66	-1,36
287,032	-1,51
287,403	-1,53
287,775	-1,54
288,146	-2,05
288,518	-2,05
288,889	-2,14
289,26	-2,1
289,632	-1,94
290,003	-2,34
290,374	-2,5
290,745	-2,86
291,116	-3,03
291,487	-3,32
291,858	-3,24
292,229	-2,85
292,6	-2,12
292,971	-1,53
293,342	-1,03
293,713	-0,67
294,084	-0,31
294,455	-0,14
294,826	-0,16
295,196	-0,16
295,567	0,09
295,938	0,66
296,308	1,24
296,679	1,19
297,05	1,31
297,42	1,29
297,791	1,25
298,161	1,15
298,532	1,05
298,902	1,1
299,272	1,32
299,643	1,44
300,013	1,73
300,383	2,06
300,754	1,99
301,124	1,88
301,494	1,71
301,864	1,32
302,234	1,03
302,604	1,17
302,974	1,2
303,344	1,1
303,714	0,97
304,084	0,83
304,454	1,3
304,824	1,45
305,194	1,53
305,563	1,87
305,933	2,16
306,303	2,38
306,673	2,63
307,042	2,74
307,412	2,99
307,781	3,07
308,151	2,91
308,521	2,89
308,89	3,12
309,259	2,95
309,629	3,16
309,998	3,38
310,368	3,47
310,737	3,79
311,106	3,89
311,475	3,95
311,845	4,1
312,214	3,87
312,583	3,77
312,952	3,62
313,321	3,48
313,69	3,39
314,059	3,64
314,428	3,62
314,797	3,76
315,166	3,77
315,535	3,74
315,904	3,68
316,272	3,59
316,641	3,44
317,01	3,54
317,379	3,42
317,747	3,31
318,116	3,07
318,484	2,85
318,853	2,95
319,221	2,9
319,59	2,74
319,958	2,83
320,327	2,78
320,695	3,12
321,063	3,3
321,432	3,47
321,8	3,39
322,168	3,38
322,536	3,29
322,905	3,19
323,273	3,02
323,641	3,09
324,009	3,31
324,377	3,44
324,745	3,51
325,113	3,48
325,481	3,58
325,849	3,97
326,216	4,18
326,584	4,23
326,952	4,41
327,32	4,45
327,687	4,38
328,055	4,38
328,423	4,27
328,79	4,01
329,158	3,9
329,525	3,92
329,893	3,91
330,26	4,04
330,628	4,19
330,995	4,3
331,362	4,31
331,73	4,1
332,097	4,1
332,464	4,14
332,831	4,19
333,199	4,07
333,566	4,01
333,933	3,84
334,3	3,71
334,667	3,42
335,034	3,38
335,401	3,49
335,768	3,78
336,135	3,91
336,502	4,21
336,868	4,24
337,235	4,24
337,602	4,36
337,969	4,38
338,335	4,49
338,702	4,6
339,069	4,62
339,435	4,69
339,802	4,67
340,168	4,79
340,535	4,91
340,901	5,01
341,267	5
341,634	5,09
342	5,26
342,366	5,48
342,733	5,65
343,099	5,78
343,465	5,73
343,831	5,84
344,197	5,89
344,563	5,92
344,929	5,86
345,295	5,8
345,661	5,75
346,027	5,68
346,393	5,64
346,759	5,62
347,125	5,66
347,491	5,72
347,856	5,78
348,222	5,79
348,588	5,79
348,953	5,76
349,319	5,79
349,684	5,77
350,05	5,81
350,415	5,72
350,781	5,57
351,146	5,49
351,512	5,38
351,877	5,33
352,242	5,36
352,608	5,39
352,973	5,4
353,338	5,44
353,703	5,45
354,068	5,44
354,433	5,41
354,798	5,37
355,164	5,33
355,528	5,18
355,893	5,16
356,258	5,2
356,623	5,23
356,988	5,25
357,353	5,25
357,718	5,27
358,082	5,25
358,447	5,34
358,812	5,45
359,176	5,43
359,541	5,39
359,905	5,39
360,27	5,47
360,634	5,6
360,999	5,67
361,363	5,68
361,728	5,76
362,092	5,86
362,456	5,97
362,821	6,01
363,185	6,11
363,549	6,12
363,913	6,14
364,277	6,24
364,641	6,31
365,005	6,34
365,369	6,35
365,733	6,41
366,097	6,43
366,461	6,37
366,825	6,35
367,189	6,38
367,553	6,43
367,916	6,47
368,28	6,43
368,644	6,39
369,007	6,45
369,371	6,55
369,734	6,56
370,098	6,6
370,461	6,66
370,825	6,69
371,188	6,75
371,552	6,81
371,915	6,87
372,278	6,88
372,642	6,95
373,005	7,02
373,368	7,09
373,731	7,14
374,094	7,19
374,457	7,3
374,82	7,37
375,183	7,46
375,546	7,49
375,909	7,56
376,272	7,64
376,635	7,68
376,998	7,65
377,361	7,74
377,723	7,78
378,086	7,8
378,449	7,82
378,811	7,89
379,174	7,92
379,537	7,91
379,899	7,92
380,262	7,95
380,624	7,9
380,987	7,96
381,349	8,02
381,711	8,09
382,074	8,11
382,436	8,17
382,798	8,26
383,16	8,16
383,522	8,13
383,884	8,1
384,247	8,11
384,609	8,14
384,971	8,14
385,333	8,13
385,695	8,17
386,056	8,21
386,418	8,19
386,78	8,22
387,142	8,17
387,504	8,14
387,865	8,13
388,227	8,17
388,589	8,18
388,95	8,15
389,312	8,09
389,673	8,12
390,035	8,06
390,396	8,01
390,758	8,05
391,119	8,06
391,48	8,06
391,842	8,07
392,203	8,06
392,564	8,07
392,925	8,05
393,286	7,99
393,648	7,97
394,009	7,97
394,37	7,95
394,731	7,97
395,092	8
395,452	7,97
395,813	7,93
396,174	7,89
396,535	7,88
396,896	7,9
397,257	7,87
397,617	7,9
397,978	7,94
398,338	7,94
398,699	7,98
399,06	8,13
399,42	8,09
399,781	8,07
400,141	8,01
400,501	8,06
400,862	8,11
401,222	8,09
401,582	8,12
401,943	8,08
402,303	8,11
402,663	8,07
403,023	8,1
403,383	8,12
403,743	8,14
404,103	8,18
404,463	8,23
404,823	8,26
405,183	8,26
405,543	8,25
405,903	8,27
406,262	8,22
406,622	8,1
406,982	8,14
407,342	8,18
407,701	8,23
408,061	8,23
408,42	8,22
408,78	8,25
409,139	8,25
409,499	8,26
409,858	8,3
410,217	8,35
410,577	8,36
410,936	8,42
411,295	8,44
411,655	8,45
412,014	8,46
412,373	8,44
412,732	8,42
413,091	8,39
413,45	8,39
413,809	8,42
414,168	8,4
414,527	8,35
414,886	8,33
415,245	8,28
415,603	8,25
415,962	8,22
416,321	8,21
416,679	8,18
417,038	8,17
417,397	8,16
417,755	8,14
418,114	8,14
418,472	8,13
418,831	8,14
419,189	8,13
419,547	8,11
419,906	8,13
420,264	8,15
420,622	8,17
420,981	8,21
421,339	8,22
421,697	8,27
422,055	8,33
422,413	8,36
422,771	8,41
423,129	8,46
423,487	8,52
423,845	8,59
424,203	8,65
424,56	8,72
424,918	8,78
425,276	8,88
425,634	8,97
425,991	9,06
426,349	9,13
426,707	9,22
427,064	9,32
427,422	9,42
427,779	9,56
428,137	9,67
428,494	9,78
428,851	9,92
429,209	9,99
429,566	10,07
429,923	10,17
430,28	10,25
430,637	10,35
430,995	10,37
431,352	10,4
431,709	10,46
432,066	10,51
432,423	10,57
432,78	10,63
433,137	10,67
433,493	10,7
433,85	10,82
434,207	10,81
434,564	10,84
434,92	10,88
435,277	10,91
435,634	10,97
435,99	10,98
436,347	11,04
436,703	11,14
437,06	11,19
437,416	11,23
437,773	11,26
438,129	11,29
438,485	11,39
438,841	11,4
439,198	11,45
439,554	11,51
439,91	11,55
440,266	11,57
440,622	11,61
440,978	11,63
441,334	11,62
441,69	11,68
442,046	11,74
442,402	11,76
442,758	11,78
443,113	11,83
443,469	11,9
443,825	11,94
444,181	11,96
444,536	12,02
444,892	12,07
445,247	12,14
445,603	12,19
445,958	12,2
446,314	12,26
446,669	12,28
447,025	12,32
447,38	12,36
447,735	12,4
448,09	12,44
448,446	12,49
448,801	12,53
449,156	12,58
449,511	12,63
449,866	12,72
450,221	12,79
450,576	12,83
450,931	12,89
451,286	12,95
451,641	13
451,995	13,06
452,35	13,12
452,705	13,15
453,06	13,19
453,414	13,23
453,769	13,26
454,123	13,31
454,478	13,32
454,832	13,35
455,187	13,32
455,541	13,32
455,896	13,31
456,25	13,29
456,604	13,27
456,958	13,27
457,313	13,25
457,667	13,27
458,021	13,3
458,375	13,34
458,729	13,36
459,083	13,38
459,437	13,39
459,791	13,37
460,145	13,41
460,499	13,41
460,852	13,41
461,206	13,44
461,56	13,45
461,914	13,46
462,267	13,45
462,621	13,5
462,974	13,52
463,328	13,56
463,681	13,64
464,035	13,71
464,388	13,76
464,742	13,8
465,095	13,84
465,448	13,86
465,801	13,85
466,155	13,87
466,508	13,88
466,861	13,87
467,214	13,9
467,567	13,89
467,92	13,91
468,273	13,91
468,626	13,91
468,979	13,9
469,332	13,92
469,684	13,93
470,037	13,96
470,39	13,98
470,743	13,99
471,095	13,99
471,448	14,01
471,8	14,02
472,153	14,03
472,505	14,04
472,858	14,05
473,21	14,06
473,562	14,06
473,915	14,05
474,267	14,06
474,619	14,08
474,971	14,06
475,324	14,06
475,676	14,11
476,028	14,06
476,38	14,06
476,732	14,04
477,084	14,04
477,436	14,01
477,787	14,02
478,139	14,01
478,491	14,02
478,843	13,98
479,195	13,98
479,546	13,9
479,898	13,85
480,249	13,8
480,601	13,78
480,952	13,75
481,304	13,72
481,655	13,71
482,007	13,68
482,358	13,67
482,709	13,65
483,061	13,62
483,412	13,64
483,763	13,64
484,114	13,65
484,465	13,64
484,816	13,64
485,167	13,63
485,518	13,62
485,869	13,61
486,22	13,62
486,571	13,62
486,922	13,65
487,272	13,66
487,623	13,67
487,974	13,67
488,324	13,69
488,675	13,71
489,025	13,72
489,376	13,74
489,726	13,78
490,077	13,81
490,427	13,84
490,778	13,87
491,128	13,9
491,478	13,94
491,828	14
492,179	14,03
492,529	14,09
492,879	14,13
493,229	14,19
493,579	14,22
493,929	14,24
494,279	14,27
494,629	14,3
494,979	14,35
495,328	14,43
495,678	14,5
496,028	14,59
496,378	14,67
496,727	14,77
497,077	14,81
497,426	14,89
497,776	14,91
498,125	14,94
498,475	14,96
498,824	15
499,174	15,04
499,523	15,07
499,872	15,12
500,221	15,16
500,571	15,21
500,92	15,27
501,269	15,36
501,618	15,43
501,967	15,5
502,316	15,58
502,665	15,65
503,014	15,74
503,363	15,82
503,711	15,89
504,06	15,94
504,409	16,02
504,758	16,05
505,106	16,15
505,455	16,22
505,803	16,31
506,152	16,38
506,5	16,46
506,849	16,55
507,197	16,61
507,546	16,7
507,894	16,79
508,242	16,87
508,59	16,94
508,939	17,02
509,287	17,11
509,635	17,19
509,983	17,28
510,331	17,36
510,679	17,46
511,027	17,54
511,375	17,63
511,723	17,73
512,07	17,86
512,418	17,97
512,766	18,08
513,114	18,18
513,461	18,32
513,809	18,42
514,156	18,53
514,504	18,66
514,851	18,78
515,199	18,9
515,546	19,02
515,893	19,15
516,241	19,29
516,588	19,4
516,935	19,54
517,282	19,63
517,63	19,73
517,977	19,84
518,324	19,96
518,671	20,07
519,018	20,18
519,365	20,25
519,711	20,37
520,058	20,47
520,405	20,56
520,752	20,65
521,099	20,77
521,445	20,91
521,792	21,04
522,138	21,19
522,485	21,35
522,832	21,52
523,178	21,65
523,524	21,78
523,871	21,92
524,217	22,04
524,563	22,18
524,91	22,29
525,256	22,44
525,602	22,56
525,948	22,66
526,294	22,73
526,64	22,78
526,986	22,82
527,332	22,86
527,678	22,92
528,024	22,97
528,37	23,04
528,716	23,08
529,061	23,12
529,407	23,17
529,753	23,24
530,098	23,32
530,444	23,39
530,789	23,44
531,135	23,47
531,48	23,52
531,826	23,59
532,171	23,68
532,516	23,74
532,862	23,82
533,207	23,89
533,552	23,95
533,897	24,05
534,242	24,12
534,587	24,19
534,932	24,27
535,277	24,34
535,622	24,35
535,967	24,42
536,312	24,48
536,657	24,55
537,001	24,6
537,346	24,64
537,691	24,7
538,035	24,76
538,38	24,79
538,724	24,82
539,069	24,84
539,413	24,84
539,758	24,86
540,102	24,9
540,446	24,92
540,791	24,95
541,135	24,98
541,479	25,02
541,823	25,04
542,167	25,05
542,512	25,09
542,856	25,08
543,2	25,08
543,543	25,09
543,887	25,11
544,231	25,14
544,575	25,17
544,919	25,18
545,262	25,23
545,606	25,28
545,95	25,31
546,293	25,35
546,637	25,4
546,98	25,46
547,324	25,49
547,667	25,57
548,011	25,59
548,354	25,61
548,697	25,61
549,04	25,63
549,384	25,63
549,727	25,58
550,07	25,65
550,413	25,65
550,756	25,71
551,099	25,74
551,442	25,76
551,785	25,8
552,128	25,79
552,47	25,78
552,813	25,77
553,156	25,76
553,499	25,75
553,841	25,73
554,184	25,68
554,526	25,65
554,869	25,62
555,211	25,6
555,554	25,56
555,896	25,54
556,238	25,5
556,581	25,48
556,923	25,48
557,265	25,46
557,607	25,42
557,949	25,38
558,291	25,33
558,633	25,25
558,975	25,14
559,317	25,1
559,659	25,08
560,001	25,04
560,343	25,02
560,685	24,97
561,026	24,9
561,368	24,85
561,71	24,78
562,051	24,73
562,393	24,73
562,734	24,64
563,076	24,59
563,417	24,54
563,759	24,45
564,1	24,41
564,441	24,35
564,782	24,3
565,124	24,22
565,465	24,15
565,806	24,12
566,147	24,1
566,488	24,05
566,829	23,97
567,17	23,89
567,511	23,8
567,851	23,77
568,192	23,69
568,533	23,61
568,874	23,55
569,214	23,45
569,555	23,32
569,895	23,25
570,236	23,17
570,576	23,07
570,917	22,99
571,257	22,88
571,598	22,75
571,938	22,68
572,278	22,6
572,618	22,53
572,959	22,46
573,299	22,39
573,639	22,31
573,979	22,25
574,319	22,2
574,659	22,17
574,999	22,09
575,339	22,03
575,678	21,99
576,018	21,91
576,358	21,83
576,698	21,81
577,037	21,77
577,377	21,72
577,716	21,67
578,056	21,66
578,395	21,58
578,735	21,56
579,074	21,49
579,413	21,44
579,753	21,42
580,092	21,35
580,431	21,28
580,77	21,26
581,109	21,2
581,448	21,16
581,787	21,1
582,126	21,07
582,465	20,99
582,804	20,95
583,143	20,97
583,482	20,95
583,82	20,86
584,159	20,8
584,498	20,77
584,836	20,78
585,175	20,74
585,514	20,73
585,852	20,7
586,19	20,7
586,529	20,66
586,867	20,59
587,205	20,57
587,544	20,55
587,882	20,5
588,22	20,43
588,558	20,38
588,896	20,35
589,234	20,31
589,572	20,32
589,91	20,29
590,248	20,22
590,586	20,21
590,924	20,22
591,262	20,22
591,599	20,16
591,937	20,16
592,275	20,15
592,612	20,12
592,95	20,1
593,287	20,06
593,625	20,08
593,962	20,07
594,299	20,04
594,637	20,03
594,974	20,03
595,311	20,07
595,648	20,07
595,985	20,06
596,322	20,05
596,659	20,11
596,996	20,08
597,333	20,03
597,67	20,03
598,007	20,02
598,344	20
598,681	20,05
599,017	19,95
599,354	19,93
599,691	19,93
600,027	19,96
600,364	19,94
600,7	19,93
601,037	19,91
601,373	19,91
601,71	19,89
602,046	19,89
602,382	19,85
602,718	19,83
603,054	19,79
603,391	19,79
603,727	19,71
604,063	19,71
604,399	19,69
604,735	19,68
605,071	19,63
605,406	19,59
605,742	19,53
606,078	19,51
606,414	19,46
606,749	19,44
607,085	19,37
607,421	19,33
607,756	19,28
608,092	19,27
608,427	19,19
608,762	19,12
609,098	19,05
609,433	18,99
609,768	18,96
610,104	18,95
610,439	18,85
610,774	18,85
611,109	18,74
611,444	18,74
611,779	18,68
612,114	18,63
612,449	18,62
612,784	18,55
613,118	18,5
613,453	18,45
613,788	18,37
614,123	18,29
614,457	18,24
614,792	18,2
615,126	18,11
615,461	18,09
615,795	18,04
616,13	17,99
616,464	17,96
616,798	17,91
617,132	17,88
617,467	17,86
617,801	17,77
618,135	17,83
618,469	17,8
618,803	17,75
619,137	17,74
619,471	17,68
619,805	17,64
620,139	17,62
620,472	17,59
620,806	17,54
621,14	17,51
621,473	17,47
621,807	17,41
622,141	17,41
622,474	17,36
622,808	17,4
623,141	17,4
623,474	17,39
623,808	17,36
624,141	17,33
624,474	17,34
624,807	17,31
625,141	17,29
625,474	17,28
625,807	17,27
626,14	17,25
626,473	17,23
626,806	17,27
627,138	17,3
627,471	17,24
627,804	17,25
628,137	17,29
628,469	17,23
628,802	17,24
629,135	17,24
629,467	17,25
629,8	17,2
630,132	17,17
630,465	17,19
630,797	17,18
631,129	17,14
631,461	17,14
631,794	17,21
632,126	17,1
632,458	17,08
632,79	17,05
633,122	17,06
633,454	17,01
633,786	16,95
634,118	16,93
634,45	16,97
634,781	16,95
635,113	16,91
635,445	16,94
635,777	16,92
636,108	16,87
636,44	16,82
636,771	16,82
637,103	16,81
637,434	16,75
637,765	16,71
638,097	16,77
638,428	16,65
638,759	16,54
639,09	16,56
639,422	16,55
639,753	16,53
640,084	16,46
640,415	16,46
640,746	16,46
641,077	16,4
641,407	16,35
641,738	16,32
642,069	16,25
642,4	16,2
642,73	16,16
643,061	16,12
643,392	16,09
643,722	16,01
644,053	15,97
644,383	15,93
644,713	15,88
645,044	15,78
645,374	15,8
645,704	15,78
646,034	15,73
646,365	15,65
646,695	15,64
647,025	15,62
647,355	15,55
647,685	15,46
648,015	15,44
648,344	15,41
648,674	15,37
649,004	15,31
649,334	15,32
649,663	15,3
649,993	15,29
650,323	15,28
650,652	15,25
650,982	15,2
651,311	15,17
651,64	15,16
651,97	15,11
652,299	15,08
652,628	15,03
652,958	15,04
653,287	15,15
653,616	15,04
653,945	14,99
654,274	15
654,603	14,97
654,932	14,92
655,261	14,87
655,589	14,8
655,918	14,78
656,247	14,71
656,576	14,68
656,904	14,6
657,233	14,6
657,561	14,56
657,89	14,5
658,218	14,47
658,547	14,41
658,875	14,35
659,203	14,26
659,532	14,25
659,86	14,21
660,188	14,06
660,516	14,06
660,844	13,99
661,172	13,97
661,5	13,89
661,828	13,85
662,156	13,79
662,484	13,77
662,811	13,72
663,139	13,65
663,467	13,54
663,794	13,53
664,122	13,43
664,45	13,38
664,777	13,37
665,104	13,39
665,432	13,29
665,759	13,2
666,086	13,24
666,414	13,13
666,741	13,05
667,068	12,96
667,395	12,9
667,722	12,9
668,049	12,82
668,376	12,78
668,703	12,72
669,03	12,68
669,357	12,62
669,683	12,56
670,01	12,54
670,337	12,56
670,663	12,49
670,99	12,43
671,317	12,38
671,643	12,3
671,969	12,17
672,296	12,15
672,622	12,18
672,948	12,08
673,275	12,07
673,601	12,03
673,927	12,04
674,253	12,06
674,579	12,04
674,905	11,99
675,231	11,98
675,557	11,97
675,883	12
676,209	12,01
676,534	11,99
676,86	11,98
677,186	11,96
677,511	12
677,837	12,02
678,162	12,09
678,488	12,1
678,813	12,14
679,139	12,24
679,464	12,22
679,789	12,25
680,114	12,34
680,44	12,41
680,765	12,42
681,09	12,4
681,415	12,43
681,74	12,5
682,065	12,57
682,39	12,62
682,714	12,69
683,039	12,73
683,364	12,87
683,689	12,91
684,013	12,95
684,338	12,98
684,662	13,09
684,987	13,11
685,311	13,19
685,636	13,24
685,96	13,31
686,284	13,48
686,608	13,62
686,933	13,68
687,257	13,83
687,581	14,05
687,905	14,2
688,229	14,35
688,553	14,5
688,877	14,66
689,201	14,81
689,524	14,94
689,848	15,15
690,172	15,31
690,496	15,53
690,819	15,75
691,143	16
691,466	16,16
691,79	16,48
692,113	16,82
692,436	17,04
692,76	17,29
693,083	17,5
693,406	17,74
693,729	18,04
694,053	18,28
694,376	18,54
694,699	18,8
695,022	19,15
695,344	19,53
695,667	19,89
695,99	20,38
696,313	20,64
696,636	20,95
696,958	21,23
697,281	21,5
697,604	21,81
697,926	22,04
698,249	22,42
698,571	22,52
698,893	22,68
699,216	22,92
699,538	23,14
699,86	23,35
700,182	23,61
700,504	23,88
700,827	24,15
701,149	24,38
701,471	24,75
701,793	25,02
702,114	25,37
702,436	25,7
702,758	26
703,08	26,54
703,401	26,88
703,723	27,28
704,045	27,54
704,366	27,88
704,688	28,21
705,009	28,42
705,331	28,93
705,652	29,25
705,973	29,62
706,294	29,94
706,616	30,34
706,937	30,65
707,258	30,91
707,579	31,22
707,9	31,55
708,221	31,82
708,542	32,21
708,863	32,52
709,183	32,91
709,504	33,23
709,825	33,51
710,145	33,9
710,466	34,12
710,787	34,59
711,107	34,91
711,427	35,26
711,748	35,61
712,068	35,88
712,388	36,35
712,709	36,75
713,029	37,13
713,349	37,4
713,669	37,78
713,989	38,16
714,309	38,56
714,629	38,92
714,949	39,33
715,269	39,71
715,589	40,07
715,908	40,41
716,228	40,85
716,548	41,25
716,867	41,59
717,187	42,11
717,506	42,39
717,826	42,82
718,145	43,2
718,465	43,58
718,784	43,97
719,103	44,26
719,422	44,67
719,741	45,13
720,061	45,72
720,38	46,12
720,699	46,53
721,018	46,91
721,336	47,27
721,655	47,62
721,974	47,96
722,293	48,3
722,612	48,83
722,93	49,04
723,249	49,48
723,567	50,01
723,886	50,28
724,204	50,77
724,523	51,21
724,841	51,7
725,159	52,2
725,477	52,58
725,796	53,05
726,114	53,47
726,432	54
726,75	54,23
727,068	54,61
727,386	54,96
727,704	55,37
728,022	55,83
728,339	56,19
728,657	56,49
728,975	57,11
729,292	57,35
729,61	57,81
729,928	58,11
730,245	58,37
730,562	58,81
730,88	59,24
731,197	59,58
731,514	59,86
731,832	60,21
732,149	60,65
732,466	61,04
732,783	61,3
733,1	61,47
733,417	61,91
733,734	62,32
734,051	62,71
734,368	63,02
734,684	63,31
735,001	63,72
735,318	64,1
735,634	64,16
735,951	64,37
736,268	64,71
736,584	64,92
736,9	65,15
737,217	65,56
737,533	65,67
737,849	65,98
738,166	66,26
738,482	66,41
738,798	66,66
739,114	66,88
739,43	67,22
739,746	67,51
740,062	67,8
740,378	67,99
740,693	68,37
741,009	68,79
741,325	68,9
741,641	69,13
741,956	69,56
742,272	69,95
742,587	70,44
742,903	70,86
743,218	71,12
743,533	71,58
743,849	71,78
744,164	72,05
744,479	72,18
744,794	72,44
745,109	72,75
745,424	72,85
745,739	72,81
746,054	72,89
746,369	72,98
746,684	73,13
746,999	73,25
747,313	73,17
747,628	73,03
747,943	73,21
748,257	73,24
748,572	73,21
748,886	73,19
749,201	73,11
749,515	72,88
749,829	73,04
750,144	73,08
750,458	73,14
750,772	73,32
751,086	73,61
751,4	73,44
751,714	73,48
752,028	73,6
752,342	73,75
752,656	73,85
752,97	73,98
753,284	73,88
753,597	73,83
753,911	73,95
754,225	74,15
754,538	74,35
754,852	74,65
755,165	74,74
755,478	74,87
755,792	75,05
756,105	75,22
756,418	75,39
756,731	75,44
757,045	75,44
757,358	75,57
757,671	75,31
757,984	75,69
758,297	75,8
758,609	75,89
758,922	76,11
759,235	76,09
759,548	76,07
759,86	76,07
760,173	76,06
760,486	75,98
760,798	75,96
761,111	75,83
761,423	75,58
761,735	75,59
762,048	75,59
762,36	75,75
762,672	75,9
762,984	75,82
763,296	75,84
763,608	75,83
763,92	75,79
764,232	75,9
764,544	75,92
764,856	75,87
765,168	75,92
765,48	75,97
765,791	76,04
766,103	76,18
766,414	76,34
766,726	76,46
767,037	76,68
767,349	76,72
767,66	76,94
767,972	77,3
768,283	77,36
768,594	77,61
768,905	77,61
769,216	77,52
769,527	77,61
769,838	77,56
770,149	77,65
770,46	77,61
770,771	77,81
771,082	77,74
771,393	77,68
771,703	77,71
772,014	77,79
772,324	77,85
772,635	78,14
772,945	78,23
773,256	78,4
773,566	78,29
773,877	78,51
774,187	78,36
774,497	78,28
774,807	78,4
775,117	78,32
775,427	78,22
775,737	78,21
776,047	78,28
776,357	78,44
776,667	78,55
776,977	78,52
777,287	78,38
777,596	78,48
777,906	78,78
778,216	78,69
778,525	78,4
778,835	78,52
779,144	79,33
779,453	79,36
779,763	79,37
780,072	79,56
780,381	79,51
780,69	79,72
781	79,86
781,309	79,94
781,618	79,87
781,927	79,82
782,235	79,97
782,544	80,13
782,853	80,34
783,162	80,36
783,471	80,99
783,779	81,24
784,088	81,08
784,396	80,89
784,705	81
785,013	81,1
785,322	81,02
785,63	79,5
785,938	79,51
786,246	79,63
786,554	79,65
786,863	79,71
787,171	79,86
787,479	79,82
787,787	79,79
788,094	79,9
788,402	79,93
788,71	79,97
789,018	79,97
789,326	79,76
789,633	79,84
789,941	79,64
790,248	79,43
790,556	79,67
790,863	79,86
791,171	80,07
791,478	80,08
791,785	79,96
792,092	80,4
792,399	80,32
792,707	80,16
793,014	79,95
793,321	79,93
793,628	79,75
793,934	79,83
794,241	79,77
794,548	79,89
794,855	80,01
795,161	79,76
795,468	79,74
795,775	79,95
796,081	79,92
796,388	79,99
796,694	80,09
797	79,88
797,307	79,74
797,613	79,8
797,919	79,82
798,225	80,22
798,531	80,05
798,837	80,32
799,143	80,39
799,449	80,64
799,755	80,82
800,061	81,08
800,367	81,07
800,672	81,14
800,978	81,13
801,284	80,99
801,589	81,14
801,895	80,92
802,2	80,7
802,506	80,85
802,811	80,66
803,116	80,59
803,421	80,64
803,727	80,71
804,032	80,48
804,337	80,65
804,642	80,78
804,947	80,97
805,252	80,7
805,556	80,66
805,861	80,43
806,166	80,05
806,471	79,68
806,775	79,49
807,08	79,63
807,384	79,85
807,689	80,23
807,993	80,15
808,298	80,53
808,602	80,59
808,906	80,16
809,211	80,38
809,515	80,41
809,819	80,6
810,123	80,62
810,427	80,67
810,731	80,72
811,035	80,38
811,338	80,55
811,642	80,91
811,946	81,13
812,25	81,14
812,553	81,57
812,857	81,95
813,16	82,35
813,464	82,26
813,767	82,15
814,07	82,04
814,374	82,07
814,677	81,8
814,98	81,76
815,283	81,94
815,586	81,52
815,889	81,49
816,192	81,33
816,495	81,48
816,798	81,39
817,101	81,04
817,404	81,11
817,706	80,63
818,009	80,07
818,312	79,84
818,614	79,55
818,917	79,22
819,219	78,44
819,521	77,55
819,824	76,85
820,126	76,25
820,428	75,93
820,73	75,88
821,032	75,68
821,334	75,54
821,636	75,63
821,938	75,88
822,24	76
822,542	76,07
822,844	76,08
823,145	76,16
823,447	76,24
823,749	76,21
824,05	76,13
824,352	76,19
824,653	76,09
824,955	76,18
825,256	76,19
825,557	76,19
825,858	76,37
826,16	76,56
826,461	76,86
826,762	77,03
827,063	77,13
827,364	77,4
827,665	77,77
827,965	77,87
828,266	77,75
828,567	77,78
828,868	77,69
829,168	77,65
829,469	77,52
829,769	77,43
830,07	77,39
830,37	77,48
830,67	77,49
830,971	77,91
831,271	77,93
831,571	78,04
831,871	78,15
832,171	78,32
832,471	78,16
832,771	78,1
833,071	78,34
833,371	78,56
833,671	78,75
833,971	78,84
834,27	78,82
834,57	78,64
834,869	78,53
835,169	78,64
835,468	78,63
835,768	78,69
836,067	78,93
836,367	79,01
836,666	79,03
836,965	79,17
837,264	78,91
837,563	78,8
837,862	78,81
838,161	79,15
838,46	78,9
838,759	79,68
839,058	80,13
839,356	80,54
839,655	80,8
839,954	81,43
840,252	81,53
840,551	82,02
840,849	82,69
841,148	82,77
841,446	82,84
841,744	82,94
842,043	83,45
842,341	83,02
842,639	83,53
842,937	84,13
843,235	84,03
843,533	84,45
843,831	85,26
844,129	85,47
844,427	86,24
844,724	86,4
845,022	86,68
845,32	86,49
845,617	86,62
845,915	86,82
846,212	86,19
846,51	86,87
846,807	87,01
847,104	86,55
847,402	87,56
847,699	88,21
847,996	88,47
848,293	88,2
848,59	88,05
848,887	87,42
849,184	87,26
849,481	87,74
849,778	87,97
850,074	88,25
850,371	88,87
850,668	89
850,964	89,41
851,261	90,08
851,557	91,38
851,854	91,24
852,15	90,86
852,446	90,65
852,743	89,59
853,039	88,57
853,335	88,53
853,631	87,82
853,927	87,44
854,223	87,77
854,519	88,07
854,815	89,36
855,111	90,82
855,406	91,6
855,702	92,24
855,998	91,73
856,293	92,07
856,589	92,05
856,884	92,73
857,18	93,39
857,475	92,93
857,77	91,82
858,066	91,92
858,361	92,11
858,656	92,53
858,951	93,15
859,246	94,02
859,541	95,1
859,836	95,36
860,131	95,42
860,426	94,89
860,72	94,21
861,015	94,15
861,31	93,07
861,604	92,8
861,899	92,17
862,193	92,27
862,487	91,53
862,782	92,22
863,076	92,41
863,37	92,29
863,664	91,59
863,959	91,86
864,253	91,46
864,547	90,99
864,841	90,61
865,135	90,25
865,428	90,36
865,722	89,95
866,016	90,16
866,31	90,38
866,603	91,16
866,897	91,4
867,19	91,65
867,484	92,33
867,777	92,05
868,07	91,49
868,364	91,85
868,657	91,77
868,95	90,51
869,243	88,67
869,536	88,75
869,829	88,99
870,122	88,79
870,415	88,8
870,708	90,15
871	90,43
871,293	90,51
871,586	89,88
871,878	90,08
872,171	89,62
872,463	90,59
872,756	90,72
873,048	90,78
873,341	89,81
873,633	89,19
873,925	89,58
874,217	90,26
874,509	90,77
874,801	90,97
875,093	91,25
875,385	93,15
875,677	93,55
875,969	94,57
