Data from palm_camino1_v_45_25_Reflection_00007.txt Node
Date: Fri Feb 11 15:52:58 ART 2022
User: Nati
Spectrometer: USB2E3644
Trigger mode: 4
Integration Time (sec): 3,520000E-1
Scans to average: 10
Electric dark correction enabled: true
Nonlinearity correction enabled: false
Boxcar width: 10
XAxis mode: Wavelengths
Number of Pixels in Spectrum: 2048
>>>>>Begin Spectral Data<<<<<
178,315	28,49
178,696	23,4
179,076	4,19
179,457	-21,87
179,838	-184,21
180,218	1570
180,599	-2975
180,979	13,89
181,36	36,17
181,74	126,09
182,121	185,07
182,501	301,82
182,881	192,73
183,262	67
183,642	70,73
184,022	56,31
184,402	57,81
184,783	13,46
185,163	123,08
185,543	181,08
185,923	81,25
186,303	63,74
186,683	87,14
187,063	57,14
187,443	35,23
187,823	27,47
188,203	-24,29
188,583	-16,33
188,963	73,42
189,343	89,09
189,723	25
190,102	147,73
190,482	196,23
190,862	109,23
191,242	34,65
191,621	-14,55
192,001	-8,85
192,38	-6,54
192,76	10
193,14	35,98
193,519	22,58
193,898	25
194,278	22,47
194,657	23,65
195,037	17,29
195,416	8,67
195,795	15,23
196,175	13,63
196,554	13,65
196,933	19,25
197,312	17,71
197,692	20,71
198,071	20,59
198,45	21,67
198,829	22,89
199,208	27,32
199,587	28,54
199,966	26,42
200,345	22,77
200,724	17,85
201,103	17,56
201,482	16,23
201,86	11,96
202,239	15,03
202,618	20,4
202,997	25,93
203,375	28,4
203,754	28,02
204,133	24,43
204,511	30,33
204,89	27,98
205,269	27,88
205,647	28,54
206,026	26,96
206,404	30,19
206,782	30,96
207,161	31,09
207,539	33,01
207,918	37,11
208,296	39,31
208,674	45,3
209,052	49,26
209,431	54,14
209,809	54,82
210,187	57,37
210,565	61,55
210,943	61,55
211,321	63,59
211,699	64,73
212,077	62,4
212,455	57,02
212,833	56,53
213,211	56,69
213,589	58,72
213,967	65,53
214,345	67,2
214,722	72,67
215,1	67,06
215,478	64,57
215,855	54,18
216,233	57,47
216,611	43,75
216,988	23,56
217,366	7,98
217,743	-1,17
218,121	-17,98
218,498	-46,97
218,876	-57,35
219,253	-57,22
219,631	-82,84
220,008	-87,87
220,385	-90,54
220,762	-111,15
221,14	-100,68
221,517	-89,05
221,894	-73,37
222,271	-62,53
222,648	-65
223,025	-59,95
223,402	-55,84
223,78	-55,01
224,157	-60,34
224,533	-56,22
224,91	-50,88
225,287	-40,35
225,664	-34,06
226,041	-21,02
226,418	-22,21
226,795	-22,79
227,171	-26,46
227,548	-16,91
227,925	-15,67
228,301	-14,95
228,678	-13,73
229,055	-6,63
229,431	-3,44
229,808	-1,55
230,184	-6,51
230,561	-10,47
230,937	-9,89
231,313	-7,55
231,69	-2,78
232,066	1,18
232,442	1,78
232,819	4,48
233,195	6,61
233,571	7,51
233,947	3,88
234,323	12,82
234,699	19,05
235,075	18,73
235,451	15,64
235,827	16,64
236,203	18,83
236,579	18,98
236,955	16,09
237,331	14,74
237,707	17,03
238,083	21,07
238,459	20,92
238,834	21,11
239,21	19,27
239,586	18,25
239,961	17,8
240,337	17,75
240,713	17,49
241,088	16,26
241,464	17,17
241,839	19,29
242,215	17,67
242,59	16,78
242,965	17,83
243,341	17,33
243,716	16,16
244,091	15,45
244,467	15,64
244,842	14,97
245,217	14,19
245,592	12,47
245,967	10,97
246,343	11,25
246,718	11,23
247,093	11,58
247,468	11,79
247,843	12,13
248,218	12,66
248,593	12,89
248,967	13,23
249,342	12,72
249,717	12,66
250,092	12,9
250,467	12,82
250,841	12,12
251,216	11,91
251,591	12,07
251,965	10,72
252,34	9,64
252,714	10,18
253,089	10,72
253,463	12,01
253,838	12,95
254,212	13,01
254,587	12,37
254,961	12,36
255,335	11,44
255,71	10,92
256,084	10,32
256,458	9,59
256,832	9,34
257,206	9,2
257,581	9,26
257,955	8,84
258,329	8,98
258,703	9,16
259,077	9,33
259,451	9,03
259,825	9,24
260,199	9,44
260,572	9,41
260,946	9,29
261,32	8,91
261,694	8,72
262,068	8,82
262,441	9,11
262,815	8,75
263,189	8,92
263,562	9,26
263,936	9,01
264,309	9,04
264,683	9,66
265,056	10,81
265,43	11,52
265,803	11,97
266,176	11,57
266,55	11,9
266,923	11,63
267,296	12,08
267,67	12,83
268,043	12,77
268,416	12,93
268,789	13,1
269,162	13,22
269,535	13,97
269,908	14,04
270,281	13,88
270,654	13,89
271,027	13,82
271,4	13,45
271,773	13,52
272,146	13,49
272,519	12,63
272,891	11,52
273,264	10,38
273,637	9,86
274,01	10,25
274,382	10,35
274,755	10,64
275,127	10,68
275,5	10,91
275,872	11,46
276,245	11,73
276,617	11,69
276,99	11,4
277,362	10,48
277,734	9,94
278,107	10,1
278,479	9,89
278,851	10,08
279,223	10,01
279,596	9,98
279,968	10,27
280,34	10,69
280,712	11,39
281,084	11,58
281,456	11,68
281,828	11,37
282,2	10,93
282,572	11,14
282,944	11,05
283,315	10,58
283,687	10,17
284,059	10,01
284,431	9,82
284,802	9,84
285,174	10,25
285,546	10,46
285,917	10,56
286,289	10,73
286,66	10,79
287,032	10,78
287,403	10,78
287,775	10,89
288,146	11,03
288,518	10,93
288,889	10,85
289,26	10,85
289,632	10,98
290,003	11,3
290,374	11,21
290,745	11,32
291,116	11,59
291,487	11,63
291,858	11,31
292,229	11,28
292,6	11,24
292,971	11,19
293,342	11,2
293,713	11,32
294,084	11,36
294,455	11,18
294,826	10,91
295,196	10,81
295,567	10,77
295,938	10,62
296,308	10,4
296,679	10,71
297,05	10,87
297,42	10,98
297,791	10,73
298,161	10,23
298,532	10,36
298,902	10,37
299,272	10,47
299,643	10,8
300,013	11,25
300,383	11,46
300,754	11,56
301,124	11,64
301,494	11,42
301,864	11,21
302,234	11,23
302,604	11,26
302,974	11,37
303,344	11,53
303,714	11,59
304,084	11,48
304,454	11,41
304,824	11,15
305,194	10,64
305,563	10,64
305,933	11,24
306,303	11,15
306,673	11,15
307,042	11,01
307,412	10,75
307,781	10,33
308,151	10,16
308,521	10,09
308,89	10,1
309,259	10,19
309,629	10,35
309,998	10,28
310,368	10,39
310,737	10,41
311,106	10,32
311,475	10,17
311,845	10,19
312,214	10,14
312,583	10,24
312,952	10,57
313,321	10,74
313,69	10,66
314,059	10,76
314,428	10,86
314,797	10,95
315,166	10,88
315,535	11,02
315,904	11,34
316,272	11,28
316,641	11,13
317,01	10,9
317,379	10,96
317,747	11,09
318,116	11,31
318,484	11,27
318,853	11,02
319,221	11,11
319,59	11,19
319,958	11,23
320,327	11,2
320,695	11,17
321,063	11,15
321,432	11,06
321,8	10,82
322,168	10,51
322,536	10,58
322,905	10,87
323,273	11,02
323,641	10,95
324,009	10,97
324,377	11,15
324,745	11,25
325,113	11,12
325,481	10,89
325,849	10,72
326,216	10,68
326,584	10,86
326,952	10,84
327,32	10,89
327,687	10,86
328,055	10,81
328,423	10,66
328,79	10,73
329,158	10,69
329,525	10,73
329,893	10,77
330,26	10,77
330,628	10,72
330,995	10,65
331,362	10,53
331,73	10,44
332,097	10,33
332,464	10,31
332,831	10,29
333,199	10,33
333,566	10,55
333,933	10,71
334,3	10,66
334,667	10,63
335,034	10,54
335,401	10,57
335,768	10,61
336,135	10,74
336,502	10,78
336,868	10,8
337,235	10,87
337,602	10,95
337,969	10,93
338,335	10,85
338,702	10,72
339,069	10,78
339,435	10,91
339,802	11,04
340,168	11,02
340,535	11,11
340,901	11,22
341,267	11,15
341,634	11,07
342	11,07
342,366	11,07
342,733	11,05
343,099	10,95
343,465	10,88
343,831	10,81
344,197	10,66
344,563	10,65
344,929	10,54
345,295	10,52
345,661	10,5
346,027	10,55
346,393	10,48
346,759	10,37
347,125	10,21
347,491	10,07
347,856	10,19
348,222	10,12
348,588	10,02
348,953	9,98
349,319	9,89
349,684	9,77
350,05	9,69
350,415	9,74
350,781	9,77
351,146	9,81
351,512	9,84
351,877	9,76
352,242	9,65
352,608	9,71
352,973	9,79
353,338	9,89
353,703	9,92
354,068	10,02
354,433	10,16
354,798	10,22
355,164	10,26
355,528	10,19
355,893	10,14
356,258	10,13
356,623	10,12
356,988	10,14
357,353	10,22
357,718	10,25
358,082	10,26
358,447	10,28
358,812	10,25
359,176	10,19
359,541	10,21
359,905	10,23
360,27	10,17
360,634	10,07
360,999	9,99
361,363	9,92
361,728	9,89
362,092	9,84
362,456	9,82
362,821	9,81
363,185	9,77
363,549	9,78
363,913	9,79
364,277	9,82
364,641	9,82
365,005	9,82
365,369	9,87
365,733	9,81
366,097	9,76
366,461	9,79
366,825	9,81
367,189	9,89
367,553	9,93
367,916	9,95
368,28	9,96
368,644	9,9
369,007	9,89
369,371	9,83
369,734	9,8
370,098	9,85
370,461	9,85
370,825	9,87
371,188	9,92
371,552	9,93
371,915	9,88
372,278	9,89
372,642	9,9
373,005	9,82
373,368	9,77
373,731	9,79
374,094	9,82
374,457	9,8
374,82	9,76
375,183	9,74
375,546	9,69
375,909	9,67
376,272	9,67
376,635	9,69
376,998	9,7
377,361	9,69
377,723	9,72
378,086	9,72
378,449	9,71
378,811	9,71
379,174	9,74
379,537	9,71
379,899	9,73
380,262	9,67
380,624	9,68
380,987	9,77
381,349	9,82
381,711	9,8
382,074	9,79
382,436	9,79
382,798	9,8
383,16	9,77
383,522	9,68
383,884	9,67
384,247	9,67
384,609	9,68
384,971	9,68
385,333	9,61
385,695	9,57
386,056	9,56
386,418	9,57
386,78	9,64
387,142	9,63
387,504	9,61
387,865	9,64
388,227	9,62
388,589	9,62
388,95	9,61
389,312	9,63
389,673	9,7
390,035	9,68
390,396	9,7
390,758	9,75
391,119	9,84
391,48	9,87
391,842	9,84
392,203	9,86
392,564	9,89
392,925	9,91
393,286	9,86
393,648	9,87
394,009	9,85
394,37	9,77
394,731	9,77
395,092	9,77
395,452	9,78
395,813	9,81
396,174	9,77
396,535	9,75
396,896	9,72
397,257	9,71
397,617	9,72
397,978	9,79
398,338	9,76
398,699	9,76
399,06	9,83
399,42	9,82
399,781	9,82
400,141	9,78
400,501	9,79
400,862	9,86
401,222	9,84
401,582	9,84
401,943	9,82
402,303	9,84
402,663	9,85
403,023	9,86
403,383	9,86
403,743	9,9
404,103	9,93
404,463	9,94
404,823	9,94
405,183	9,95
405,543	9,89
405,903	9,9
406,262	9,87
406,622	9,83
406,982	9,93
407,342	9,95
407,701	9,96
408,061	9,99
408,42	10,02
408,78	10,04
409,139	10,08
409,499	10,08
409,858	10,1
410,217	10,12
410,577	10,12
410,936	10,15
411,295	10,13
411,655	10,13
412,014	10,16
412,373	10,21
412,732	10,22
413,091	10,26
413,45	10,34
413,809	10,39
414,168	10,43
414,527	10,39
414,886	10,41
415,245	10,45
415,603	10,46
415,962	10,44
416,321	10,46
416,679	10,48
417,038	10,52
417,397	10,54
417,755	10,57
418,114	10,58
418,472	10,58
418,831	10,63
419,189	10,63
419,547	10,64
419,906	10,64
420,264	10,67
420,622	10,7
420,981	10,71
421,339	10,73
421,697	10,74
422,055	10,78
422,413	10,82
422,771	10,83
423,129	10,86
423,487	10,89
423,845	10,92
424,203	10,93
424,56	10,97
424,918	10,99
425,276	11,04
425,634	11,09
425,991	11,15
426,349	11,17
426,707	11,23
427,064	11,26
427,422	11,31
427,779	11,38
428,137	11,42
428,494	11,48
428,851	11,52
429,209	11,59
429,566	11,65
429,923	11,7
430,28	11,76
430,637	11,83
430,995	11,86
431,352	11,91
431,709	11,95
432,066	12,02
432,423	12,06
432,78	12,08
433,137	12,12
433,493	12,13
433,85	12,2
434,207	12,2
434,564	12,24
434,92	12,27
435,277	12,29
435,634	12,34
435,99	12,37
436,347	12,42
436,703	12,47
437,06	12,51
437,416	12,57
437,773	12,6
438,129	12,6
438,485	12,68
438,841	12,69
439,198	12,71
439,554	12,72
439,91	12,76
440,266	12,77
440,622	12,82
440,978	12,86
441,334	12,89
441,69	12,95
442,046	13
442,402	13,04
442,758	13,05
443,113	13,08
443,469	13,12
443,825	13,13
444,181	13,16
444,536	13,19
444,892	13,21
445,247	13,24
445,603	13,27
445,958	13,26
446,314	13,3
446,669	13,34
447,025	13,37
447,38	13,38
447,735	13,41
448,09	13,42
448,446	13,44
448,801	13,46
449,156	13,48
449,511	13,5
449,866	13,53
450,221	13,57
450,576	13,6
450,931	13,62
451,286	13,66
451,641	13,67
451,995	13,68
452,35	13,69
452,705	13,71
453,06	13,72
453,414	13,75
453,769	13,77
454,123	13,78
454,478	13,8
454,832	13,84
455,187	13,82
455,541	13,84
455,896	13,84
456,25	13,86
456,604	13,9
456,958	13,9
457,313	13,9
457,667	13,91
458,021	13,92
458,375	13,95
458,729	13,98
459,083	13,99
459,437	14
459,791	14,01
460,145	14,04
460,499	14,05
460,852	14,03
461,206	14,06
461,56	14,06
461,914	14,08
462,267	14,06
462,621	14,1
462,974	14,11
463,328	14,12
463,681	14,14
464,035	14,14
464,388	14,16
464,742	14,19
465,095	14,22
465,448	14,22
465,801	14,19
466,155	14,2
466,508	14,2
466,861	14,22
467,214	14,2
467,567	14,21
467,92	14,23
468,273	14,23
468,626	14,23
468,979	14,24
469,332	14,22
469,684	14,23
470,037	14,23
470,39	14,23
470,743	14,22
471,095	14,22
471,448	14,22
471,8	14,21
472,153	14,19
472,505	14,2
472,858	14,22
473,21	14,25
473,562	14,27
473,915	14,3
474,267	14,29
474,619	14,31
474,971	14,29
475,324	14,29
475,676	14,34
476,028	14,29
476,38	14,27
476,732	14,27
477,084	14,28
477,436	14,27
477,787	14,27
478,139	14,29
478,491	14,27
478,843	14,26
479,195	14,28
479,546	14,26
479,898	14,26
480,249	14,31
480,601	14,37
480,952	14,37
481,304	14,37
481,655	14,37
482,007	14,36
482,358	14,38
482,709	14,38
483,061	14,36
483,412	14,37
483,763	14,38
484,114	14,39
484,465	14,39
484,816	14,39
485,167	14,39
485,518	14,39
485,869	14,4
486,22	14,41
486,571	14,42
486,922	14,43
487,272	14,44
487,623	14,43
487,974	14,4
488,324	14,39
488,675	14,4
489,025	14,41
489,376	14,43
489,726	14,44
490,077	14,45
490,427	14,47
490,778	14,48
491,128	14,5
491,478	14,5
491,828	14,52
492,179	14,56
492,529	14,58
492,879	14,61
493,229	14,63
493,579	14,64
493,929	14,65
494,279	14,67
494,629	14,69
494,979	14,71
495,328	14,74
495,678	14,78
496,028	14,8
496,378	14,83
496,727	14,87
497,077	14,9
497,426	14,94
497,776	14,95
498,125	14,99
498,475	15,01
498,824	15,05
499,174	15,05
499,523	15,07
499,872	15,1
500,221	15,14
500,571	15,19
500,92	15,23
501,269	15,28
501,618	15,33
501,967	15,37
502,316	15,4
502,665	15,45
503,014	15,51
503,363	15,59
503,711	15,66
504,06	15,71
504,409	15,75
504,758	15,78
505,106	15,87
505,455	15,95
505,803	16
506,152	16,05
506,5	16,12
506,849	16,17
507,197	16,22
507,546	16,26
507,894	16,31
508,242	16,37
508,59	16,43
508,939	16,48
509,287	16,55
509,635	16,63
509,983	16,69
510,331	16,74
510,679	16,8
511,027	16,85
511,375	16,91
511,723	16,97
512,07	17,04
512,418	17,12
512,766	17,19
513,114	17,29
513,461	17,38
513,809	17,46
514,156	17,58
514,504	17,68
514,851	17,79
515,199	17,91
515,546	18,01
515,893	18,13
516,241	18,24
516,588	18,34
516,935	18,42
517,282	18,5
517,63	18,6
517,977	18,68
518,324	18,77
518,671	18,87
519,018	18,97
519,365	19,06
519,711	19,15
520,058	19,24
520,405	19,32
520,752	19,41
521,099	19,52
521,445	19,62
521,792	19,75
522,138	19,85
522,485	19,97
522,832	20,12
523,178	20,22
523,524	20,32
523,871	20,45
524,217	20,54
524,563	20,66
524,91	20,83
525,256	20,99
525,602	21,16
525,948	21,25
526,294	21,34
526,64	21,4
526,986	21,46
527,332	21,49
527,678	21,53
528,024	21,6
528,37	21,65
528,716	21,67
529,061	21,72
529,407	21,78
529,753	21,84
530,098	21,89
530,444	21,96
530,789	22,02
531,135	22,05
531,48	22,09
531,826	22,14
532,171	22,17
532,516	22,2
532,862	22,21
533,207	22,26
533,552	22,31
533,897	22,36
534,242	22,4
534,587	22,45
534,932	22,51
535,277	22,52
535,622	22,52
535,967	22,59
536,312	22,62
536,657	22,67
537,001	22,7
537,346	22,73
537,691	22,78
538,035	22,81
538,38	22,87
538,724	22,92
539,069	22,94
539,413	22,96
539,758	22,97
540,102	23,01
540,446	23,01
540,791	23,02
541,135	23,02
541,479	23,04
541,823	23,06
542,167	23,07
542,512	23,1
542,856	23,1
543,2	23,12
543,543	23,13
543,887	23,13
544,231	23,15
544,575	23,17
544,919	23,17
545,262	23,2
545,606	23,2
545,95	23,23
546,293	23,26
546,637	23,28
546,98	23,33
547,324	23,34
547,667	23,39
548,011	23,42
548,354	23,46
548,697	23,46
549,04	23,45
549,384	23,44
549,727	23,41
550,07	23,46
550,413	23,45
550,756	23,42
551,099	23,43
551,442	23,44
551,785	23,46
552,128	23,45
552,47	23,42
552,813	23,42
553,156	23,38
553,499	23,37
553,841	23,35
554,184	23,33
554,526	23,32
554,869	23,29
555,211	23,3
555,554	23,27
555,896	23,26
556,238	23,27
556,581	23,26
556,923	23,26
557,265	23,25
557,607	23,21
557,949	23,23
558,291	23,19
558,633	23,15
558,975	23,13
559,317	23,15
559,659	23,14
560,001	23,11
560,343	23,12
560,685	23,12
561,026	23,11
561,368	23,05
561,71	23,02
562,051	22,97
562,393	22,93
562,734	22,83
563,076	22,78
563,417	22,74
563,759	22,71
564,1	22,69
564,441	22,62
564,782	22,59
565,124	22,52
565,465	22,51
565,806	22,48
566,147	22,41
566,488	22,33
566,829	22,26
567,17	22,23
567,511	22,16
567,851	22,11
568,192	22,05
568,533	21,98
568,874	21,95
569,214	21,9
569,555	21,82
569,895	21,78
570,236	21,74
570,576	21,65
570,917	21,57
571,257	21,48
571,598	21,43
571,938	21,38
572,278	21,33
572,618	21,26
572,959	21,18
573,299	21,14
573,639	21,08
573,979	21,04
574,319	20,99
574,659	20,93
574,999	20,89
575,339	20,84
575,678	20,82
576,018	20,74
576,358	20,68
576,698	20,64
577,037	20,63
577,377	20,61
577,716	20,61
578,056	20,61
578,395	20,59
578,735	20,55
579,074	20,5
579,413	20,47
579,753	20,41
580,092	20,39
580,431	20,36
580,77	20,31
581,109	20,26
581,448	20,21
581,787	20,18
582,126	20,1
582,465	20,04
582,804	20
583,143	20,04
583,482	19,98
583,82	19,93
584,159	19,86
584,498	19,82
584,836	19,76
585,175	19,68
585,514	19,64
585,852	19,59
586,19	19,61
586,529	19,55
586,867	19,53
587,205	19,49
587,544	19,48
587,882	19,46
588,22	19,43
588,558	19,42
588,896	19,42
589,234	19,41
589,572	19,43
589,91	19,4
590,248	19,31
590,586	19,35
590,924	19,34
591,262	19,34
591,599	19,3
591,937	19,34
592,275	19,34
592,612	19,34
592,95	19,34
593,287	19,32
593,625	19,29
593,962	19,26
594,299	19,26
594,637	19,23
594,974	19,21
595,311	19,22
595,648	19,21
595,985	19,21
596,322	19,21
596,659	19,24
596,996	19,22
597,333	19,2
597,67	19,16
598,007	19,16
598,344	19,15
598,681	19,21
599,017	19,12
599,354	19,07
599,691	19,04
600,027	19,05
600,364	18,98
600,7	19,02
601,037	19,02
601,373	18,98
601,71	18,96
602,046	18,95
602,382	18,91
602,718	18,89
603,054	18,83
603,391	18,8
603,727	18,74
604,063	18,76
604,399	18,73
604,735	18,72
605,071	18,68
605,406	18,67
605,742	18,59
606,078	18,62
606,414	18,59
606,749	18,55
607,085	18,51
607,421	18,54
607,756	18,48
608,092	18,46
608,427	18,42
608,762	18,41
609,098	18,39
609,433	18,37
609,768	18,33
610,104	18,32
610,439	18,27
610,774	18,26
611,109	18,19
611,444	18,19
611,779	18,2
612,114	18,18
612,449	18,14
612,784	18,1
613,118	18,05
613,453	18,06
613,788	18,03
614,123	17,94
614,457	17,89
614,792	17,87
615,126	17,81
615,461	17,81
615,795	17,77
616,13	17,73
616,464	17,72
616,798	17,71
617,132	17,68
617,467	17,7
617,801	17,64
618,135	17,69
618,469	17,65
618,803	17,6
619,137	17,57
619,471	17,56
619,805	17,51
620,139	17,46
620,472	17,41
620,806	17,41
621,14	17,42
621,473	17,37
621,807	17,35
622,141	17,36
622,474	17,32
622,808	17,34
623,141	17,3
623,474	17,22
623,808	17,18
624,141	17,16
624,474	17,17
624,807	17,12
625,141	17,07
625,474	17,09
625,807	17,08
626,14	17,05
626,473	17,05
626,806	17,09
627,138	17,16
627,471	17,15
627,804	17,15
628,137	17,18
628,469	17,15
628,802	17,12
629,135	17,12
629,467	17,11
629,8	17,08
630,132	17,08
630,465	17,12
630,797	17,18
631,129	17,18
631,461	17,12
631,794	17,21
632,126	17,14
632,458	17,15
632,79	17,14
633,122	17,16
633,454	17,11
633,786	17,05
634,118	17
634,45	17,02
634,781	16,99
635,113	16,92
635,445	16,92
635,777	16,91
636,108	16,85
636,44	16,82
636,771	16,8
637,103	16,75
637,434	16,72
637,765	16,64
638,097	16,73
638,428	16,66
638,759	16,53
639,09	16,54
639,422	16,46
639,753	16,42
640,084	16,35
640,415	16,38
640,746	16,47
641,077	16,4
641,407	16,35
641,738	16,3
642,069	16,29
642,4	16,25
642,73	16,26
643,061	16,24
643,392	16,24
643,722	16,22
644,053	16,22
644,383	16,2
644,713	16,17
645,044	16,05
645,374	16,1
645,704	16,15
646,034	16,14
646,365	16,11
646,695	16,17
647,025	16,21
647,355	16,14
647,685	15,97
648,015	15,95
648,344	15,95
648,674	15,96
649,004	15,91
649,334	15,91
649,663	15,85
649,993	15,9
650,323	15,9
650,652	15,87
650,982	15,87
651,311	15,83
651,64	15,78
651,97	15,73
652,299	15,67
652,628	15,6
652,958	15,57
653,287	15,64
653,616	15,46
653,945	15,37
654,274	15,39
654,603	15,35
654,932	15,36
655,261	15,33
655,589	15,29
655,918	15,27
656,247	15,23
656,576	15,22
656,904	15,08
657,233	15,06
657,561	14,98
657,89	14,92
658,218	14,89
658,547	14,88
658,875	14,84
659,203	14,83
659,532	14,83
659,86	14,82
660,188	14,74
660,516	14,8
660,844	14,82
661,172	14,78
661,5	14,76
661,828	14,72
662,156	14,69
662,484	14,66
662,811	14,56
663,139	14,54
663,467	14,5
663,794	14,52
664,122	14,43
664,45	14,43
664,777	14,41
665,104	14,44
665,432	14,32
665,759	14,24
666,086	14,24
666,414	14,12
666,741	14,08
667,068	13,98
667,395	13,93
667,722	13,91
668,049	13,86
668,376	13,83
668,703	13,75
669,03	13,72
669,357	13,63
669,683	13,64
670,01	13,59
670,337	13,51
670,663	13,5
670,99	13,5
671,317	13,47
671,643	13,48
671,969	13,43
672,296	13,52
672,622	13,57
672,948	13,49
673,275	13,52
673,601	13,51
673,927	13,52
674,253	13,53
674,579	13,51
674,905	13,51
675,231	13,5
675,557	13,51
675,883	13,49
676,209	13,57
676,534	13,55
676,86	13,57
677,186	13,6
677,511	13,63
677,837	13,61
678,162	13,66
678,488	13,65
678,813	13,67
679,139	13,69
679,464	13,65
679,789	13,7
680,114	13,76
680,44	13,79
680,765	13,78
681,09	13,78
681,415	13,83
681,74	13,87
682,065	13,95
682,39	14,01
682,714	14,11
683,039	14,11
683,364	14,24
683,689	14,29
684,013	14,39
684,338	14,46
684,662	14,56
684,987	14,58
685,311	14,65
685,636	14,71
685,96	14,75
686,284	14,87
686,608	14,96
686,933	14,98
687,257	15,07
687,581	15,27
687,905	15,36
688,229	15,43
688,553	15,49
688,877	15,59
689,201	15,69
689,524	15,81
689,848	15,97
690,172	16,04
690,496	16,16
690,819	16,27
691,143	16,39
691,466	16,45
691,79	16,67
692,113	16,89
692,436	17,03
692,76	17,2
693,083	17,41
693,406	17,64
693,729	17,87
694,053	18,04
694,376	18,19
694,699	18,43
695,022	18,68
695,344	18,9
695,667	19,26
695,99	19,59
696,313	19,76
696,636	19,95
696,958	20,17
697,281	20,35
697,604	20,61
697,926	20,79
698,249	21,13
698,571	21,21
698,893	21,32
699,216	21,53
699,538	21,77
699,86	21,96
700,182	22,11
700,504	22,32
700,827	22,55
701,149	22,79
701,471	23,11
701,793	23,39
702,114	23,75
702,436	23,99
702,758	24,33
703,08	24,76
703,401	25,07
703,723	25,49
704,045	25,9
704,366	26,33
704,688	26,67
705,009	26,87
705,331	27,44
705,652	27,75
705,973	27,97
706,294	28,25
706,616	28,54
706,937	28,88
707,258	29,15
707,579	29,42
707,9	29,71
708,221	29,95
708,542	30,3
708,863	30,63
709,183	31,03
709,504	31,29
709,825	31,61
710,145	32,02
710,466	32,35
710,787	32,6
711,107	32,82
711,427	33,15
711,748	33,52
712,068	33,8
712,388	34,21
712,709	34,7
713,029	35,14
713,349	35,54
713,669	35,86
713,989	36,23
714,309	36,64
714,629	37,13
714,949	37,48
715,269	37,88
715,589	38,26
715,908	38,6
716,228	38,97
716,548	39,31
716,867	39,67
717,187	39,94
717,506	40,44
717,826	40,83
718,145	41,28
718,465	41,66
718,784	42,08
719,103	42,46
719,422	42,83
719,741	43,16
720,061	43,71
720,38	44,17
720,699	44,59
721,018	45
721,336	45,29
721,655	45,75
721,974	46,06
722,293	46,47
722,612	46,96
722,93	47,28
723,249	47,63
723,567	48,09
723,886	48,54
724,204	49,11
724,523	49,61
724,841	49,96
725,159	50,39
725,477	50,85
725,796	51,27
726,114	51,7
726,432	52,22
726,75	52,47
727,068	52,95
727,386	53,44
727,704	53,99
728,022	54,35
728,339	54,71
728,657	55,22
728,975	55,69
729,292	55,94
729,61	56,48
729,928	56,97
730,245	57,29
730,562	57,69
730,88	57,99
731,197	58,32
731,514	58,63
731,832	59
732,149	59,31
732,466	59,67
732,783	59,98
733,1	60,2
733,417	60,59
733,734	60,89
734,051	61,19
734,368	61,47
734,684	61,9
735,001	62,31
735,318	62,53
735,634	62,68
735,951	63,02
736,268	63,31
736,584	63,58
736,9	64,06
737,217	64,42
737,533	64,65
737,849	65,05
738,166	65,46
738,482	65,8
738,798	66,19
739,114	66,57
739,43	66,81
739,746	67,11
740,062	67,28
740,378	67,61
740,693	67,82
741,009	68
741,325	68,24
741,641	68,48
741,956	68,81
742,272	69,28
742,587	69,75
742,903	69,93
743,218	70,15
743,533	70,29
743,849	70,56
744,164	70,87
744,479	71,04
744,794	71,19
745,109	71,3
745,424	71,5
745,739	71,58
746,054	71,9
746,369	72,15
746,684	72,31
746,999	72,43
747,313	72,67
747,628	72,93
747,943	73,14
748,257	73,21
748,572	73,42
748,886	73,58
749,201	73,56
749,515	73,78
749,829	74,09
750,144	74,29
750,458	74,48
750,772	74,59
751,086	74,64
751,4	74,85
751,714	74,82
752,028	74,79
752,342	75
752,656	75,05
752,97	75,11
753,284	75,4
753,597	75,54
753,911	75,6
754,225	75,69
754,538	75,83
754,852	76,05
755,165	76,27
755,478	76,26
755,792	76,47
756,105	76,56
756,418	76,49
756,731	76,49
757,045	76,6
757,358	76,61
757,671	76,85
757,984	76,86
758,297	77,13
758,609	77,24
758,922	77,1
759,235	77,23
759,548	77,49
759,86	77,41
760,173	77,42
760,486	77,65
760,798	77,71
761,111	77,48
761,423	77,51
761,735	77,31
762,048	77,49
762,36	77,45
762,672	77,42
762,984	77,57
763,296	77,62
763,608	77,5
763,92	77,49
764,232	77,34
764,544	77,38
764,856	77,46
765,168	77,49
765,48	77,7
765,791	77,62
766,103	77,45
766,414	77,59
766,726	77,6
767,037	77,54
767,349	77,56
767,66	77,59
767,972	77,56
768,283	77,61
768,594	77,57
768,905	77,52
769,216	77,92
769,527	77,81
769,838	77,85
770,149	78
770,46	78,31
770,771	78,42
771,082	78,45
771,393	78,25
771,703	78,34
772,014	78,37
772,324	78,4
772,635	78,6
772,945	78,61
773,256	78,8
773,566	78,84
773,877	78,61
774,187	78,66
774,497	78,62
774,807	78,55
775,117	78,55
775,427	78,78
775,737	78,28
776,047	78,42
776,357	78,35
776,667	78,28
776,977	78,05
777,287	78,21
777,596	78,24
777,906	78,42
778,216	78,34
778,525	78,1
778,835	78,47
779,144	78,26
779,453	78,03
779,763	77,91
780,072	77,89
780,381	78,28
780,69	78,38
781	78,56
781,309	78,87
781,618	78,63
781,927	78,65
782,235	78,62
782,544	78,73
782,853	78,48
783,162	78,75
783,471	78,74
783,779	78,35
784,088	78,16
784,396	78,15
784,705	78,25
785,013	78,51
785,322	78,29
785,63	78,63
785,938	79,17
786,246	79,07
786,554	78,96
786,863	78,91
787,171	78,84
787,479	78,91
787,787	78,8
788,094	78,82
788,402	78,49
788,71	78,69
789,018	78,31
789,326	78,36
789,633	78,12
789,941	78,1
790,248	78,3
790,556	78,33
790,863	78,42
791,171	78,24
791,478	78,27
791,785	78,42
792,092	78,16
792,399	77,74
792,707	77,6
793,014	77,45
793,321	77,23
793,628	77,4
793,934	77,3
794,241	77,33
794,548	77,29
794,855	77,73
795,161	77,8
795,468	78,29
795,775	78,39
796,081	78,3
796,388	78,47
796,694	78,36
797	78,56
797,307	78,12
797,613	78,12
797,919	78,38
798,225	78,18
798,531	78,58
798,837	78,54
799,143	78,52
799,449	78,71
799,755	78,66
800,061	78,64
800,367	78,5
800,672	78,41
800,978	78,29
801,284	78,3
801,589	78,26
801,895	77,55
802,2	77,75
802,506	78,16
802,811	78,27
803,116	78,67
803,421	78,95
803,727	79,32
804,032	79,21
804,337	78,76
804,642	78,93
804,947	78,43
805,252	78,14
805,556	78,32
805,861	78,12
806,166	78,1
806,471	78,21
806,775	78,33
807,08	78,33
807,384	78,95
807,689	78,67
807,993	78,69
808,298	78,94
808,602	78,8
808,906	78,42
809,211	78,47
809,515	78,28
809,819	77,77
810,123	77,93
810,427	78,02
810,731	77,9
811,035	77,87
811,338	78,35
811,642	78,92
811,946	78,77
812,25	78,57
812,553	78,53
812,857	78,4
813,16	78,31
813,464	78,5
813,767	78,43
814,07	78,67
814,374	78,53
814,677	78,69
814,98	78,34
815,283	78,02
815,586	77,93
815,889	77,58
816,192	78,07
816,495	78,17
816,798	78,43
817,101	78,66
817,404	78,33
817,706	78,43
818,009	78,01
818,312	77,93
818,614	78,29
818,917	78,42
819,219	78,92
819,521	79,13
819,824	79,02
820,126	79,02
820,428	78,93
820,73	78,95
821,032	78,92
821,334	78,99
821,636	79,03
821,938	78,94
822,24	78,91
822,542	78,88
822,844	78,8
823,145	78,84
823,447	78,92
823,749	78,91
824,05	78,77
824,352	78,77
824,653	78,77
824,955	78,74
825,256	78,75
825,557	78,57
825,858	78,48
826,16	78,57
826,461	78,49
826,762	78,43
827,063	78,33
827,364	78,39
827,665	78,34
827,965	78,38
828,266	78,5
828,567	78,71
828,868	78,64
829,168	78,54
829,469	78,39
829,769	78,08
830,07	77,97
830,37	78,23
830,67	78,43
830,971	78,48
831,271	78,41
831,571	78,2
831,871	78,41
832,171	78,46
832,471	78,29
832,771	78,31
833,071	78,42
833,371	78,58
833,671	78,43
833,971	78,53
834,27	78,62
834,57	78,62
834,869	78,58
835,169	78,61
835,468	79
835,768	79,01
836,067	79,17
836,367	79,37
836,666	79,39
836,965	79,43
837,264	79,44
837,563	79,52
837,862	79,88
838,161	80,09
838,46	80,12
838,759	80,31
839,058	80,33
839,356	80,09
839,655	79,75
839,954	79,85
840,252	80,23
840,551	79,82
840,849	79,04
841,148	78,71
841,446	78,68
841,744	78,18
842,043	77,92
842,341	76,94
842,639	77,11
842,937	77,09
843,235	76,95
843,533	77,35
843,831	77,24
844,129	76,61
844,427	75,99
844,724	75,86
845,022	74,91
845,32	75,11
845,617	75,23
845,915	76,05
846,212	75,77
846,51	75,09
846,807	75,6
847,104	75,42
847,402	74,77
847,699	74,41
847,996	75,38
848,293	77,33
848,59	79,71
848,887	79,92
849,184	78,66
849,481	78,22
849,778	77,74
850,074	78,32
850,371	78,43
850,668	77,8
850,964	77,59
851,261	78,01
851,557	77,57
851,854	77,61
852,15	76,65
852,446	77,25
852,743	76,19
853,039	76,56
853,335	77,34
853,631	78,5
853,927	80,87
854,223	81,61
854,519	79,75
854,815	79,06
855,111	78,68
855,406	79,04
855,702	79,52
855,998	79,91
856,293	78,8
856,589	79,89
856,884	80,33
857,18	80,82
857,475	80,01
857,77	78,71
858,066	80,3
858,361	81,82
858,656	81,42
858,951	82,96
859,246	84,25
859,541	85,25
859,836	84,94
860,131	81,95
860,426	80,08
860,72	80,31
861,015	79,75
861,31	79,99
861,604	80,17
861,899	80,05
862,193	79,53
862,487	81,85
862,782	83,52
863,076	84,5
863,37	86,03
863,664	87,67
863,959	88,55
864,253	87,35
864,547	86,22
864,841	87,1
865,135	85,24
865,428	82,93
865,722	82,81
866,016	82,11
866,31	83,73
866,603	85,66
866,897	87,13
867,19	87,45
867,484	85,69
867,777	84,24
868,07	83,56
868,364	83,85
868,657	81,04
868,95	77,51
869,243	78,96
869,536	78,28
869,829	79,49
870,122	79,04
870,415	79,95
870,708	81,11
871	80,49
871,293	82,5
871,586	82,71
871,878	82,42
872,171	84,86
872,463	83,91
872,756	81,71
873,048	80,76
873,341	80,71
873,633	82,93
873,925	84,64
874,217	85,73
874,509	86,15
874,801	87,89
875,093	90,3
875,385	88,82
875,677	87,68
875,969	84,74
