Data from palm_cartel_d_45_90_Reflection_00005.txt Node
Date: Fri Feb 11 15:10:12 ART 2022
User: Nati
Spectrometer: USB2E3644
Trigger mode: 4
Integration Time (sec): 3,520000E-1
Scans to average: 10
Electric dark correction enabled: true
Nonlinearity correction enabled: false
Boxcar width: 10
XAxis mode: Wavelengths
Number of Pixels in Spectrum: 2048
>>>>>Begin Spectral Data<<<<<
178,315	-121,12
178,696	-75
179,076	-46,33
179,457	-81,94
179,838	-41,58
180,218	-1,07
180,599	-7,79
180,979	5,13
181,36	150
181,74	14,72
182,121	-45,28
182,501	5,66
182,881	-30
183,262	300
183,642	-120
184,022	124,14
184,402	184,62
184,783	216,46
185,163	426,92
185,543	330,38
185,923	344,32
186,303	293,81
186,683	263,48
187,063	224,5
187,443	162,61
187,823	142,5
188,203	124,37
188,583	110,82
188,963	105,75
189,343	115,55
189,723	99,78
190,102	88,84
190,482	86,69
190,862	85,32
191,242	79,35
191,621	70,5
192,001	70,27
192,38	70,45
192,76	70,98
193,14	71,04
193,519	71,52
193,898	69,76
194,278	70,25
194,657	68,48
195,037	66,88
195,416	72,6
195,795	69,75
196,175	61,3
196,554	55,52
196,933	52,11
197,312	47,51
197,692	47,07
198,071	47,54
198,45	49,93
198,829	50,4
199,208	50,18
199,587	47,91
199,966	45
200,345	39,57
200,724	38,6
201,103	35,92
201,482	32,01
201,86	28,09
202,239	29,87
202,618	30,6
202,997	40,31
203,375	44,14
203,754	42,56
204,133	36,83
204,511	38,42
204,89	44,33
205,269	51,75
205,647	58,6
206,026	60,64
206,404	55,67
206,782	61,72
207,161	60
207,539	68,9
207,918	80,59
208,296	78,03
208,674	73,6
209,052	74,55
209,431	83,66
209,809	80,74
210,187	70,54
210,565	67,27
210,943	58,58
211,321	60,45
211,699	65,19
212,077	72,93
212,455	78,47
212,833	81,07
213,211	76,32
213,589	83,69
213,967	91,28
214,345	96,15
214,722	87,02
215,1	97,92
215,478	98,04
215,855	93,07
216,233	93,25
216,611	99,39
216,988	106,09
217,366	106,66
217,743	110,8
218,121	112,98
218,498	112,91
218,876	106,92
219,253	103,06
219,631	106,44
220,008	107,5
220,385	103
220,762	102,56
221,14	102,02
221,517	95,68
221,894	86,98
222,271	83,1
222,648	85,1
223,025	80,12
223,402	80,21
223,78	76,85
224,157	76,46
224,533	71,97
224,91	62,76
225,287	54,23
225,664	52,47
226,041	53,07
226,418	49
226,795	56,11
227,171	57,8
227,548	58,32
227,925	59,34
228,301	59,03
228,678	55,09
229,055	57,64
229,431	60,22
229,808	62,74
230,184	62,51
230,561	58,51
230,937	56,85
231,313	51,23
231,69	46,96
232,066	45,62
232,442	44,35
232,819	42,59
233,195	40,79
233,571	35,61
233,947	34,97
234,323	33,83
234,699	27,78
235,075	27,88
235,451	24,56
235,827	21,91
236,203	17,23
236,579	18,58
236,955	14,97
237,331	6,83
237,707	2,72
238,083	2,37
238,459	4,68
238,834	8,61
239,21	12,91
239,586	15,14
239,961	14,79
240,337	17,57
240,713	19,33
241,088	19,38
241,464	20,96
241,839	21,99
242,215	22,03
242,59	21,82
242,965	20,22
243,341	19,37
243,716	18,48
244,091	18,65
244,467	17,47
244,842	17,21
245,217	17,94
245,592	18,13
245,967	18,05
246,343	18,21
246,718	18,77
247,093	19,01
247,468	19,41
247,843	19,13
248,218	18,12
248,593	17,81
248,967	16,85
249,342	16,62
249,717	16,26
250,092	16,36
250,467	16,69
250,841	17,69
251,216	18,21
251,591	17,63
251,965	18,35
252,34	19,71
252,714	19,87
253,089	20,71
253,463	21,64
253,838	22,18
254,212	21,4
254,587	18,93
254,961	18,08
255,335	18,06
255,71	18,15
256,084	17,57
256,458	17,26
256,832	18,11
257,206	18,27
257,581	18,36
257,955	18,22
258,329	17,39
258,703	16,41
259,077	16,35
259,451	17
259,825	16,92
260,199	16,57
260,572	16,33
260,946	16,21
261,32	16,05
261,694	15,8
262,068	16,24
262,441	17
262,815	17,08
263,189	17,36
263,562	17,52
263,936	17,76
264,309	18,27
264,683	18,43
265,056	18,47
265,43	18,22
265,803	17,46
266,176	17,96
266,55	18,49
266,923	18,37
267,296	18,43
267,67	17,94
268,043	17,68
268,416	17,45
268,789	17,13
269,162	16,95
269,535	16,54
269,908	16,03
270,281	15,78
270,654	15,85
271,027	15,48
271,4	15,31
271,773	15,4
272,146	15
272,519	15,18
272,891	14,99
273,264	14,83
273,637	14,94
274,01	14,55
274,382	14,63
274,755	14,79
275,127	14,79
275,5	15,3
275,872	15,62
276,245	15,94
276,617	16,21
276,99	16,37
277,362	17,04
277,734	17,22
278,107	17,32
278,479	16,95
278,851	16,79
279,223	16,6
279,596	16,28
279,968	16,37
280,34	16
280,712	15,91
281,084	16,09
281,456	16,45
281,828	16,74
282,2	16,89
282,572	16,99
282,944	16,79
283,315	16,46
283,687	16,22
284,059	16,03
284,431	15,73
284,802	15,54
285,174	14,96
285,546	14,78
285,917	14,79
286,289	15
286,66	14,88
287,032	15,04
287,403	15,17
287,775	15,01
288,146	14,85
288,518	14,9
288,889	15,03
289,26	15,19
289,632	15,32
290,003	15,02
290,374	14,81
290,745	14,66
291,116	14,63
291,487	14,47
291,858	14,69
292,229	15,13
292,6	15,48
292,971	15,82
293,342	15,8
293,713	15,52
294,084	15,32
294,455	15,34
294,826	15,49
295,196	15,55
295,567	15,69
295,938	16,12
296,308	16,2
296,679	15,89
297,05	15,59
297,42	15,5
297,791	15,68
298,161	15,6
298,532	15,52
298,902	15,41
299,272	15,41
299,643	15,54
300,013	15,16
300,383	14,78
300,754	14,67
301,124	14,62
301,494	14,67
301,864	14,86
302,234	14,92
302,604	14,42
302,974	14,38
303,344	14,3
303,714	13,83
304,084	13,56
304,454	13,39
304,824	13,58
305,194	13,49
305,563	13,28
305,933	13,27
306,303	13,31
306,673	13,26
307,042	13,35
307,412	13,06
307,781	13,17
308,151	13,23
308,521	13,14
308,89	13,07
309,259	12,96
309,629	12,91
309,998	12,9
310,368	12,86
310,737	12,7
311,106	12,59
311,475	12,68
311,845	12,75
312,214	13,16
312,583	13,12
312,952	13,18
313,321	13,35
313,69	13,34
314,059	13,54
314,428	13,79
314,797	14,09
315,166	14,44
315,535	14,36
315,904	14,36
316,272	14,31
316,641	14,58
317,01	14,61
317,379	14,38
317,747	14,2
318,116	14,54
318,484	14,68
318,853	14,69
319,221	14,62
319,59	14,49
319,958	14,29
320,327	14,18
320,695	14,14
321,063	13,83
321,432	13,71
321,8	13,5
322,168	13,21
322,536	12,94
322,905	12,65
323,273	12,78
323,641	12,89
324,009	13,08
324,377	13,1
324,745	13,21
325,113	13,14
325,481	13,2
325,849	13
326,216	13,04
326,584	13,07
326,952	13,1
327,32	13,11
327,687	13,01
328,055	12,86
328,423	12,69
328,79	12,66
329,158	12,76
329,525	12,7
329,893	12,74
330,26	12,92
330,628	12,86
330,995	12,76
331,362	12,58
331,73	12,57
332,097	12,42
332,464	12,37
332,831	12,52
333,199	12,43
333,566	12,47
333,933	12,34
334,3	12,26
334,667	12,19
335,034	12,15
335,401	12,05
335,768	12,1
336,135	12,2
336,502	12,18
336,868	12,1
337,235	12,06
337,602	11,99
337,969	11,69
338,335	11,65
338,702	11,61
339,069	11,71
339,435	11,72
339,802	11,74
340,168	11,61
340,535	11,59
340,901	11,57
341,267	11,46
341,634	11,28
342	11,14
342,366	11,09
342,733	11,05
343,099	11,06
343,465	11,04
343,831	10,99
344,197	11
344,563	10,95
344,929	10,92
345,295	10,99
345,661	11,05
346,027	11,11
346,393	11,04
346,759	10,93
347,125	10,85
347,491	10,75
347,856	10,89
348,222	10,84
348,588	10,81
348,953	10,85
349,319	10,93
349,684	10,91
350,05	10,95
350,415	10,94
350,781	10,95
351,146	10,98
351,512	10,95
351,877	10,9
352,242	10,91
352,608	10,93
352,973	10,91
353,338	10,87
353,703	10,73
354,068	10,75
354,433	10,71
354,798	10,64
355,164	10,69
355,528	10,63
355,893	10,56
356,258	10,51
356,623	10,51
356,988	10,53
357,353	10,6
357,718	10,55
358,082	10,58
358,447	10,6
358,812	10,59
359,176	10,64
359,541	10,65
359,905	10,68
360,27	10,7
360,634	10,67
360,999	10,62
361,363	10,64
361,728	10,62
362,092	10,61
362,456	10,58
362,821	10,53
363,185	10,43
363,549	10,39
363,913	10,46
364,277	10,46
364,641	10,44
365,005	10,37
365,369	10,36
365,733	10,33
366,097	10,32
366,461	10,32
366,825	10,27
367,189	10,24
367,553	10,18
367,916	10,13
368,28	10,1
368,644	10,11
369,007	10,11
369,371	10,07
369,734	10,05
370,098	10,08
370,461	10,08
370,825	10,11
371,188	10,1
371,552	10,02
371,915	9,93
372,278	9,88
372,642	9,95
373,005	9,91
373,368	9,89
373,731	9,86
374,094	9,81
374,457	9,73
374,82	9,7
375,183	9,68
375,546	9,67
375,909	9,67
376,272	9,67
376,635	9,66
376,998	9,69
377,361	9,74
377,723	9,74
378,086	9,73
378,449	9,75
378,811	9,85
379,174	9,88
379,537	9,88
379,899	9,93
380,262	9,92
380,624	9,94
380,987	9,95
381,349	9,92
381,711	9,95
382,074	9,97
382,436	10
382,798	10,56
383,16	10,49
383,522	10,46
383,884	10,45
384,247	10,48
384,609	10,48
384,971	10,46
385,333	10,42
385,695	10,4
386,056	10,37
386,418	10,28
386,78	10,31
387,142	10,25
387,504	10,17
387,865	10,11
388,227	10,1
388,589	10,12
388,95	10,08
389,312	10,06
389,673	10,11
390,035	10,04
390,396	9,58
390,758	9,61
391,119	9,61
391,48	9,56
391,842	9,51
392,203	9,5
392,564	9,49
392,925	9,48
393,286	9,47
393,648	9,47
394,009	9,48
394,37	9,47
394,731	9,51
395,092	9,5
395,452	9,51
395,813	9,51
396,174	9,46
396,535	9,51
396,896	9,49
397,257	9,44
397,617	9,45
397,978	9,51
398,338	9,49
398,699	9,5
399,06	9,58
399,42	9,56
399,781	9,53
400,141	9,5
400,501	9,52
400,862	9,54
401,222	9,49
401,582	9,49
401,943	9,47
402,303	9,45
402,663	9,45
403,023	9,45
403,383	9,45
403,743	9,47
404,103	9,46
404,463	9,48
404,823	9,52
405,183	9,54
405,543	9,5
405,903	9,52
406,262	9,53
406,622	9,48
406,982	9,5
407,342	9,53
407,701	9,55
408,061	9,53
408,42	9,51
408,78	9,53
409,139	9,52
409,499	9,52
409,858	9,56
410,217	9,58
410,577	9,58
410,936	9,58
411,295	9,59
411,655	9,61
412,014	9,64
412,373	9,6
412,732	9,57
413,091	9,58
413,45	9,6
413,809	9,59
414,168	9,6
414,527	9,56
414,886	9,56
415,245	9,58
415,603	9,6
415,962	9,62
416,321	9,62
416,679	9,64
417,038	9,65
417,397	9,64
417,755	9,63
418,114	9,63
418,472	9,63
418,831	9,63
419,189	9,61
419,547	9,61
419,906	9,62
420,264	9,63
420,622	9,65
420,981	9,64
421,339	9,67
421,697	9,68
422,055	9,72
422,413	9,73
422,771	9,73
423,129	9,75
423,487	9,77
423,845	9,79
424,203	9,79
424,56	9,81
424,918	9,85
425,276	9,9
425,634	9,95
425,991	9,97
426,349	9,99
426,707	10,05
427,064	10,05
427,422	10,08
427,779	10,14
428,137	10,16
428,494	10,23
428,851	10,28
429,209	10,33
429,566	10,37
429,923	10,4
430,28	10,46
430,637	10,51
430,995	10,53
431,352	10,54
431,709	10,57
432,066	10,6
432,423	10,61
432,78	10,62
433,137	10,65
433,493	10,67
433,85	10,75
434,207	10,71
434,564	10,77
434,92	10,8
435,277	10,84
435,634	10,87
435,99	10,91
436,347	10,94
436,703	10,98
437,06	11,01
437,416	11,07
437,773	11,07
438,129	11,09
438,485	11,16
438,841	11,19
439,198	11,22
439,554	11,23
439,91	11,26
440,266	11,29
440,622	11,33
440,978	11,36
441,334	11,36
441,69	11,42
442,046	11,43
442,402	11,47
442,758	11,48
443,113	11,51
443,469	11,54
443,825	11,56
444,181	11,57
444,536	11,62
444,892	11,64
445,247	11,68
445,603	11,69
445,958	11,69
446,314	11,72
446,669	11,75
447,025	11,78
447,38	11,82
447,735	11,85
448,09	11,86
448,446	11,88
448,801	11,91
449,156	11,94
449,511	11,97
449,866	12,02
450,221	12,06
450,576	12,1
450,931	12,13
451,286	12,18
451,641	12,22
451,995	12,24
452,35	12,29
452,705	12,3
453,06	12,36
453,414	12,39
453,769	12,42
454,123	12,42
454,478	12,42
454,832	12,43
455,187	12,43
455,541	12,47
455,896	12,46
456,25	12,49
456,604	12,52
456,958	12,55
457,313	12,55
457,667	12,58
458,021	12,59
458,375	12,62
458,729	12,62
459,083	12,64
459,437	12,66
459,791	12,65
460,145	12,67
460,499	12,68
460,852	12,7
461,206	12,72
461,56	12,75
461,914	12,78
462,267	12,77
462,621	12,8
462,974	12,8
463,328	12,85
463,681	12,84
464,035	12,87
464,388	12,9
464,742	12,9
465,095	12,92
465,448	12,94
465,801	12,94
466,155	12,96
466,508	12,98
466,861	12,96
467,214	12,98
467,567	12,99
467,92	13,01
468,273	12,99
468,626	12,99
468,979	13,01
469,332	13,03
469,684	13,04
470,037	13,05
470,39	13,06
470,743	13,08
471,095	13,08
471,448	13,08
471,8	13,07
472,153	13,08
472,505	13,04
472,858	13,03
473,21	13,03
473,562	13,02
473,915	13,02
474,267	13,04
474,619	13,05
474,971	13,03
475,324	13,02
475,676	13,06
476,028	13,02
476,38	13,02
476,732	12,99
477,084	12,99
477,436	12,98
477,787	12,96
478,139	12,95
478,491	12,97
478,843	12,94
479,195	12,94
479,546	12,92
479,898	12,94
480,249	12,96
480,601	12,98
480,952	13
481,304	13,01
481,655	13,01
482,007	12,98
482,358	13
482,709	13
483,061	12,98
483,412	12,98
483,763	12,98
484,114	12,99
484,465	12,99
484,816	13
485,167	13,01
485,518	13,01
485,869	13,02
486,22	13,03
486,571	13,04
486,922	13,05
487,272	13,06
487,623	13,06
487,974	13,06
488,324	13,06
488,675	13,07
489,025	13,08
489,376	13,11
489,726	13,11
490,077	13,12
490,427	13,14
490,778	13,16
491,128	13,19
491,478	13,21
491,828	13,23
492,179	13,25
492,529	13,27
492,879	13,31
493,229	13,33
493,579	13,37
493,929	13,39
494,279	13,41
494,629	13,45
494,979	13,51
495,328	13,55
495,678	13,59
496,028	13,65
496,378	13,73
496,727	13,79
497,077	13,84
497,426	13,9
497,776	13,94
498,125	13,99
498,475	14,02
498,824	14,07
499,174	14,11
499,523	14,17
499,872	14,21
500,221	14,27
500,571	14,32
500,92	14,37
501,269	14,46
501,618	14,55
501,967	14,61
502,316	14,66
502,665	14,72
503,014	14,79
503,363	14,87
503,711	14,91
504,06	14,97
504,409	15,06
504,758	15,11
505,106	15,21
505,455	15,28
505,803	15,37
506,152	15,44
506,5	15,53
506,849	15,61
507,197	15,68
507,546	15,75
507,894	15,83
508,242	15,92
508,59	15,98
508,939	16,02
509,287	16,12
509,635	16,19
509,983	16,27
510,331	16,36
510,679	16,43
511,027	16,52
511,375	16,62
511,723	16,71
512,07	16,8
512,418	16,91
512,766	17
513,114	17,1
513,461	17,21
513,809	17,32
514,156	17,42
514,504	17,54
514,851	17,65
515,199	17,78
515,546	17,9
515,893	18,01
516,241	18,16
516,588	18,25
516,935	18,39
517,282	18,49
517,63	18,59
517,977	18,72
518,324	18,82
518,671	18,9
519,018	19
519,365	19,08
519,711	19,18
520,058	19,27
520,405	19,35
520,752	19,44
521,099	19,56
521,445	19,68
521,792	19,81
522,138	19,95
522,485	20,07
522,832	20,21
523,178	20,33
523,524	20,43
523,871	20,55
524,217	20,68
524,563	20,81
524,91	20,94
525,256	21,08
525,602	21,22
525,948	21,33
526,294	21,43
526,64	21,49
526,986	21,53
527,332	21,58
527,678	21,63
528,024	21,67
528,37	21,73
528,716	21,76
529,061	21,81
529,407	21,87
529,753	21,94
530,098	22
530,444	22,08
530,789	22,13
531,135	22,17
531,48	22,2
531,826	22,25
532,171	22,32
532,516	22,38
532,862	22,44
533,207	22,49
533,552	22,52
533,897	22,6
534,242	22,65
534,587	22,71
534,932	22,78
535,277	22,82
535,622	22,84
535,967	22,89
536,312	22,93
536,657	22,97
537,001	23,01
537,346	23,07
537,691	23,13
538,035	23,18
538,38	23,23
538,724	23,26
539,069	23,28
539,413	23,3
539,758	23,32
540,102	23,33
540,446	23,38
540,791	23,42
541,135	23,45
541,479	23,48
541,823	23,52
542,167	23,52
542,512	23,56
542,856	23,56
543,2	23,57
543,543	23,59
543,887	23,61
544,231	23,63
544,575	23,63
544,919	23,64
545,262	23,67
545,606	23,7
545,95	23,71
546,293	23,73
546,637	23,75
546,98	23,81
547,324	23,83
547,667	23,85
548,011	23,85
548,354	23,86
548,697	23,86
549,04	23,85
549,384	23,86
549,727	23,84
550,07	23,88
550,413	23,91
550,756	23,92
551,099	23,94
551,442	23,96
551,785	24,01
552,128	24,02
552,47	24,03
552,813	24,06
553,156	24,09
553,499	24,12
553,841	24,12
554,184	24,1
554,526	24,08
554,869	24,05
555,211	24,06
555,554	24,06
555,896	24,07
556,238	24,06
556,581	24,04
556,923	24,02
557,265	24
557,607	23,97
557,949	23,96
558,291	23,93
558,633	23,87
558,975	23,83
559,317	23,8
559,659	23,78
560,001	23,7
560,343	23,67
560,685	23,64
561,026	23,57
561,368	23,55
561,71	23,51
562,051	23,48
562,393	23,46
562,734	23,38
563,076	23,33
563,417	23,28
563,759	23,24
564,1	23,19
564,441	23,16
564,782	23,13
565,124	23,08
565,465	23,03
565,806	23,01
566,147	22,96
566,488	22,92
566,829	22,87
567,17	22,85
567,511	22,78
567,851	22,74
568,192	22,69
568,533	22,6
568,874	22,57
569,214	22,51
569,555	22,42
569,895	22,37
570,236	22,32
570,576	22,24
570,917	22,19
571,257	22,13
571,598	22,07
571,938	22
572,278	21,95
572,618	21,91
572,959	21,84
573,299	21,78
573,639	21,72
573,979	21,68
574,319	21,64
574,659	21,62
574,999	21,56
575,339	21,49
575,678	21,46
576,018	21,41
576,358	21,36
576,698	21,32
577,037	21,3
577,377	21,21
577,716	21,18
578,056	21,16
578,395	21,13
578,735	21,08
579,074	21,01
579,413	20,95
579,753	20,91
580,092	20,86
580,431	20,82
580,77	20,79
581,109	20,72
581,448	20,65
581,787	20,6
582,126	20,58
582,465	20,57
582,804	20,52
583,143	20,52
583,482	20,44
583,82	20,39
584,159	20,36
584,498	20,34
584,836	20,32
585,175	20,25
585,514	20,18
585,852	20,15
586,19	20,14
586,529	20,09
586,867	20,02
587,205	19,99
587,544	19,99
587,882	19,95
588,22	19,89
588,558	19,89
588,896	19,86
589,234	19,82
589,572	19,79
589,91	19,82
590,248	19,75
590,586	19,75
590,924	19,75
591,262	19,74
591,599	19,7
591,937	19,69
592,275	19,66
592,612	19,66
592,95	19,63
593,287	19,62
593,625	19,6
593,962	19,59
594,299	19,57
594,637	19,53
594,974	19,55
595,311	19,58
595,648	19,54
595,985	19,51
596,322	19,51
596,659	19,55
596,996	19,52
597,333	19,47
597,67	19,47
598,007	19,45
598,344	19,42
598,681	19,49
599,017	19,45
599,354	19,45
599,691	19,41
600,027	19,44
600,364	19,41
600,7	19,42
601,037	19,39
601,373	19,38
601,71	19,33
602,046	19,31
602,382	19,27
602,718	19,25
603,054	19,23
603,391	19,2
603,727	19,15
604,063	19,15
604,399	19,13
604,735	19,12
605,071	19,1
605,406	19,09
605,742	19,04
606,078	19,05
606,414	18,99
606,749	18,95
607,085	18,88
607,421	18,84
607,756	18,79
608,092	18,76
608,427	18,72
608,762	18,69
609,098	18,64
609,433	18,59
609,768	18,56
610,104	18,55
610,439	18,51
610,774	18,5
611,109	18,41
611,444	18,4
611,779	18,36
612,114	18,33
612,449	18,28
612,784	18,22
613,118	18,15
613,453	18,18
613,788	18,15
614,123	18,13
614,457	18,11
614,792	18,11
615,126	18,05
615,461	18
615,795	17,98
616,13	17,94
616,464	17,91
616,798	17,89
617,132	17,83
617,467	17,79
617,801	17,7
618,135	17,73
618,469	17,69
618,803	17,65
619,137	17,61
619,471	17,56
619,805	17,51
620,139	17,45
620,472	17,4
620,806	17,38
621,14	17,33
621,473	17,29
621,807	17,23
622,141	17,29
622,474	17,24
622,808	17,26
623,141	17,2
623,474	17,17
623,808	17,11
624,141	17,08
624,474	17,12
624,807	17,09
625,141	17,06
625,474	17,06
625,807	17,03
626,14	17,04
626,473	17,01
626,806	17,04
627,138	17,05
627,471	17,02
627,804	17,03
628,137	17,09
628,469	17,04
628,802	17,07
629,135	17,01
629,467	17,03
629,8	17,01
630,132	17
630,465	17,04
630,797	17,09
631,129	17,08
631,461	17,04
631,794	17,13
632,126	17,03
632,458	17
632,79	17,01
633,122	16,99
633,454	17,02
633,786	16,97
634,118	16,96
634,45	17,01
634,781	16,99
635,113	16,93
635,445	16,9
635,777	16,86
636,108	16,85
636,44	16,84
636,771	16,82
637,103	16,79
637,434	16,74
637,765	16,69
638,097	16,78
638,428	16,7
638,759	16,6
639,09	16,61
639,422	16,6
639,753	16,56
640,084	16,52
640,415	16,49
640,746	16,53
641,077	16,45
641,407	16,36
641,738	16,34
642,069	16,28
642,4	16,25
642,73	16,24
643,061	16,21
643,392	16,18
643,722	16,11
644,053	16,1
644,383	16,09
644,713	16,04
645,044	15,89
645,374	15,88
645,704	15,87
646,034	15,87
646,365	15,83
646,695	15,83
647,025	15,82
647,355	15,73
647,685	15,63
648,015	15,63
648,344	15,6
648,674	15,55
649,004	15,52
649,334	15,54
649,663	15,49
649,993	15,46
650,323	15,41
650,652	15,36
650,982	15,33
651,311	15,26
651,64	15,25
651,97	15,19
652,299	15,17
652,628	15,11
652,958	15,08
653,287	15,13
653,616	14,99
653,945	14,92
654,274	14,93
654,603	14,87
654,932	14,81
655,261	14,76
655,589	14,71
655,918	14,66
656,247	14,58
656,576	14,56
656,904	14,46
657,233	14,45
657,561	14,38
657,89	14,32
658,218	14,3
658,547	14,24
658,875	14,23
659,203	14,19
659,532	14,13
659,86	14,12
660,188	13,96
660,516	13,93
660,844	13,89
661,172	13,82
661,5	13,75
661,828	13,73
662,156	13,67
662,484	13,61
662,811	13,56
663,139	13,46
663,467	13,36
663,794	13,34
664,122	13,22
664,45	13,2
664,777	13,18
665,104	13,17
665,432	13,04
665,759	12,96
666,086	12,9
666,414	12,79
666,741	12,75
667,068	12,74
667,395	12,69
667,722	12,63
668,049	12,59
668,376	12,58
668,703	12,51
669,03	12,54
669,357	12,5
669,683	12,45
670,01	12,45
670,337	12,46
670,663	12,44
670,99	12,46
671,317	12,37
671,643	12,34
671,969	12,27
672,296	12,33
672,622	12,39
672,948	12,36
673,275	12,36
673,601	12,33
673,927	12,32
674,253	12,38
674,579	12,41
674,905	12,4
675,231	12,39
675,557	12,39
675,883	12,37
676,209	12,44
676,534	12,41
676,86	12,45
677,186	12,42
677,511	12,41
677,837	12,43
678,162	12,48
678,488	12,5
678,813	12,55
679,139	12,57
679,464	12,54
679,789	12,56
680,114	12,62
680,44	12,65
680,765	12,68
681,09	12,68
681,415	12,75
681,74	12,83
682,065	12,89
682,39	12,94
682,714	13,02
683,039	12,99
683,364	13,16
683,689	13,18
684,013	13,26
684,338	13,33
684,662	13,41
684,987	13,52
685,311	13,59
685,636	13,66
685,96	13,77
686,284	13,89
686,608	14,04
686,933	14,18
687,257	14,27
687,581	14,43
687,905	14,57
688,229	14,68
688,553	14,77
688,877	14,92
689,201	15,11
689,524	15,27
689,848	15,48
690,172	15,56
690,496	15,71
690,819	15,89
691,143	16,11
691,466	16,28
691,79	16,52
692,113	16,81
692,436	16,95
692,76	17,18
693,083	17,38
693,406	17,61
693,729	17,86
694,053	18,16
694,376	18,41
694,699	18,64
695,022	18,96
695,344	19,3
695,667	19,61
695,99	19,81
696,313	20,01
696,636	20,26
696,958	20,56
697,281	20,79
697,604	21,03
697,926	21,22
698,249	21,6
698,571	21,73
698,893	21,85
699,216	22,11
699,538	22,36
699,86	22,59
700,182	22,81
700,504	23,05
700,827	23,28
701,149	23,47
701,471	23,8
701,793	24,03
702,114	24,32
702,436	24,66
702,758	25,05
703,08	25,49
703,401	25,89
703,723	26,25
704,045	26,67
704,366	27,13
704,688	27,54
705,009	27,72
705,331	28,2
705,652	28,54
705,973	28,87
706,294	29,16
706,616	29,53
706,937	29,81
707,258	30,06
707,579	30,38
707,9	30,73
708,221	31,03
708,542	31,4
708,863	31,67
709,183	32,02
709,504	32,4
709,825	32,7
710,145	33,08
710,466	33,44
710,787	33,75
711,107	34,08
711,427	34,38
711,748	34,74
712,068	35,03
712,388	35,39
712,709	35,72
713,029	36,14
713,349	36,48
713,669	36,82
713,989	37,21
714,309	37,59
714,629	37,94
714,949	38,35
715,269	38,72
715,589	39,17
715,908	39,51
716,228	39,89
716,548	40,28
716,867	40,63
717,187	40,92
717,506	41,31
717,826	41,59
718,145	41,98
718,465	42,27
718,784	42,69
719,103	43,15
719,422	43,5
719,741	43,83
720,061	44,3
720,38	44,7
720,699	45,09
721,018	45,38
721,336	45,84
721,655	46,36
721,974	46,76
722,293	47,19
722,612	47,46
722,93	47,79
723,249	48,2
723,567	48,6
723,886	49,04
724,204	49,53
724,523	49,95
724,841	50,31
725,159	50,79
725,477	51,02
725,796	51,35
726,114	51,89
726,432	52,29
726,75	52,49
727,068	52,87
727,386	53,28
727,704	53,85
728,022	54,15
728,339	54,39
728,657	54,67
728,975	55,17
729,292	55,68
729,61	56,06
729,928	56,33
730,245	56,62
730,562	57,07
730,88	57,44
731,197	57,79
731,514	58,16
731,832	58,47
732,149	58,86
732,466	59,16
732,783	59,39
733,1	59,71
733,417	60,26
733,734	60,64
734,051	61,11
734,368	61,32
734,684	61,67
735,001	62,09
735,318	62,5
735,634	62,63
735,951	63,03
736,268	63,33
736,584	63,7
736,9	63,94
737,217	64,3
737,533	64,41
737,849	64,73
738,166	65,02
738,482	65,26
738,798	65,73
739,114	66,16
739,43	66,49
739,746	66,78
740,062	66,89
740,378	67,06
740,693	67,2
741,009	67,49
741,325	67,84
741,641	67,97
741,956	68,14
742,272	68,35
742,587	68,6
742,903	68,84
743,218	68,98
743,533	69,35
743,849	69,31
744,164	69,73
744,479	69,85
744,794	70,13
745,109	70,45
745,424	70,41
745,739	70,45
746,054	70,47
746,369	70,58
746,684	70,73
746,999	70,96
747,313	70,94
747,628	71,12
747,943	71,14
748,257	71,23
748,572	71,44
748,886	71,72
749,201	71,66
749,515	71,97
749,829	72,3
750,144	72,32
750,458	72,66
750,772	72,69
751,086	72,67
751,4	72,7
751,714	72,62
752,028	72,79
752,342	73,07
752,656	73,29
752,97	73,35
753,284	73,44
753,597	73,49
753,911	73,7
754,225	73,74
754,538	73,77
754,852	73,79
755,165	73,73
755,478	73,62
755,792	73,67
756,105	73,51
756,418	73,45
756,731	73,56
757,045	73,35
757,358	73,38
757,671	73,69
757,984	73,81
758,297	74,04
758,609	74,06
758,922	74,02
759,235	73,92
759,548	74,04
759,86	73,99
760,173	74,11
760,486	74,07
760,798	74,03
761,111	74,01
761,423	74,05
761,735	74,07
762,048	74,08
762,36	73,93
762,672	74,05
762,984	73,98
763,296	74,01
763,608	74,09
763,92	74,08
764,232	74,04
764,544	73,99
764,856	73,77
765,168	73,8
765,48	73,69
765,791	73,81
766,103	73,84
766,414	73,9
766,726	73,9
767,037	74,04
767,349	74,05
767,66	74,32
767,972	74,34
768,283	74,48
768,594	74,47
768,905	74,83
769,216	74,93
769,527	75,37
769,838	75,44
770,149	75,56
770,46	75,57
770,771	75,66
771,082	75,93
771,393	76,39
771,703	76,4
772,014	76,44
772,324	76,54
772,635	76,54
772,945	76,56
773,256	76,47
773,566	76,52
773,877	76,52
774,187	76,4
774,497	76,59
774,807	76,7
775,117	77,05
775,427	77,02
775,737	76,9
776,047	76,52
776,357	76,49
776,667	76,51
776,977	76,61
777,287	76,41
777,596	76,14
777,906	75,7
778,216	75,74
778,525	75,79
778,835	75,49
779,144	76,57
779,453	76,51
779,763	76,52
780,072	76,12
780,381	76,26
780,69	76,23
781	76,2
781,309	76,15
781,618	76,01
781,927	76,13
782,235	76,23
782,544	76,21
782,853	76,07
783,162	76,05
783,471	76,11
783,779	76,28
784,088	76,35
784,396	76,82
784,705	76,61
785,013	76,49
785,322	76,62
785,63	75,33
785,938	75,27
786,246	75,17
786,554	75,58
786,863	75,54
787,171	75,44
787,479	75,41
787,787	75,36
788,094	75,07
788,402	75,13
788,71	75,09
789,018	75,13
789,326	75,19
789,633	75,26
789,941	75,52
790,248	75,63
790,556	75,76
790,863	75,4
791,171	75,66
791,478	75,7
791,785	75,65
792,092	75,69
792,399	75,59
792,707	75,72
793,014	75,78
793,321	75,78
793,628	75,93
793,934	75,68
794,241	75,7
794,548	76,11
794,855	75,88
795,161	75,87
795,468	75,73
795,775	75,7
796,081	75,49
796,388	75,08
796,694	74,95
797	74,61
797,307	74,69
797,613	74,7
797,919	74,6
798,225	74,74
798,531	74,73
798,837	74,97
799,143	75,08
799,449	74,64
799,755	74,62
800,061	74,72
800,367	75
800,672	75,1
800,978	75,15
801,284	75,09
801,589	74,76
801,895	74,61
802,2	74,81
802,506	75,18
802,811	75,26
803,116	75,2
803,421	75,33
803,727	75,77
804,032	75,82
804,337	76,13
804,642	76,13
804,947	76,12
805,252	76,11
805,556	75,83
805,861	76,33
806,166	76,09
806,471	75,84
806,775	75,76
807,08	75,66
807,384	75,53
807,689	75,53
807,993	75,86
808,298	76,16
808,602	75,71
808,906	75,56
809,211	75,46
809,515	75,61
809,819	75,86
810,123	75,51
810,427	75,41
810,731	75,56
811,035	75,47
811,338	75,51
811,642	75,93
811,946	76,1
812,25	75,49
812,553	75,81
812,857	75,56
813,16	75,31
813,464	75
813,767	74,63
814,07	75,1
814,374	75,14
814,677	75,37
814,98	76,4
815,283	76,57
815,586	76,95
815,889	77,22
816,192	77,43
816,495	77,62
816,798	77,57
817,101	77,7
817,404	77,8
817,706	77,67
818,009	77,23
818,312	77,19
818,614	77,37
818,917	77,07
819,219	76,66
819,521	76,35
819,824	75,76
820,126	75,41
820,428	75,1
820,73	74,87
821,032	74,78
821,334	74,49
821,636	74,48
821,938	74,44
822,24	74,42
822,542	74,39
822,844	74,39
823,145	74,46
823,447	74,45
823,749	74,49
824,05	74,47
824,352	74,45
824,653	74,43
824,955	74,36
825,256	74,34
825,557	74,38
825,858	74,4
826,16	74,54
826,461	74,68
826,762	74,83
827,063	74,97
827,364	75,1
827,665	75,26
827,965	75,32
828,266	75,38
828,567	75,42
828,868	75,59
829,168	75,62
829,469	75,6
829,769	75,47
830,07	75,3
830,37	75,41
830,67	75,37
830,971	75,5
831,271	75,65
831,571	75,98
831,871	75,91
832,171	75,92
832,471	75,8
832,771	75,57
833,071	75,44
833,371	75,51
833,671	75,17
833,971	75,45
834,27	75,36
834,57	75,35
834,869	75,39
835,169	75,54
835,468	75,58
835,768	75,54
836,067	75,64
836,367	75,77
836,666	75,77
836,965	75,91
837,264	75,85
837,563	76,04
837,862	75,78
838,161	76,33
838,46	76,74
838,759	77,2
839,058	77,86
839,356	77,77
839,655	77,77
839,954	78,33
840,252	78,16
840,551	78,56
840,849	78,42
841,148	78,22
841,446	77,34
841,744	77,31
842,043	77,44
842,341	77,94
842,639	77,95
842,937	77,93
843,235	77,85
843,533	77,93
843,831	77,81
844,129	78,6
844,427	78,17
844,724	78,66
845,022	78,98
845,32	78,87
845,617	79,49
845,915	79,77
846,212	80,09
846,51	79,58
846,807	78
847,104	78,42
847,402	78,04
847,699	77,5
847,996	77,16
848,293	76,54
848,59	76,19
848,887	76,15
849,184	76,1
849,481	75,83
849,778	75,93
850,074	75,31
850,371	74,31
850,668	74,48
850,964	73,6
851,261	74,44
851,557	75,2
851,854	75,91
852,15	76,95
852,446	76,67
852,743	77,31
853,039	78,11
853,335	77,54
853,631	77,79
853,927	80,19
854,223	80,65
854,519	81,94
854,815	81,37
855,111	81,35
855,406	81,54
855,702	82,95
855,998	82,34
856,293	82,69
856,589	81,97
856,884	81,83
857,18	81,38
857,475	79,19
857,77	77,63
858,066	76,43
858,361	75,45
858,656	76,48
858,951	76,26
859,246	76,75
859,541	77,35
859,836	77,31
860,131	76,47
860,426	76,18
860,72	75,17
861,015	74,36
861,31	76,02
861,604	76,58
861,899	76,29
862,193	76,2
862,487	76,57
862,782	76,32
863,076	75,7
863,37	74,62
863,664	75,99
863,959	78,2
864,253	78,58
864,547	78,73
864,841	76,34
865,135	77,66
865,428	78,44
865,722	78,83
866,016	80,15
866,31	79,19
866,603	79,08
866,897	78,69
867,19	79,92
867,484	77,89
867,777	77,57
868,07	78,09
868,364	78,6
868,657	77,85
868,95	79,33
869,243	80,62
869,536	80,73
869,829	79,52
870,122	78
870,415	77,55
870,708	76,31
871	78,24
871,293	77,98
871,586	77,62
871,878	77,17
872,171	75,12
872,463	75,02
872,756	74,7
873,048	73,98
873,341	73,41
873,633	73,13
873,925	72,51
874,217	71,82
874,509	71,7
874,801	71,95
875,093	71,47
875,385	70,09
875,677	71,31
875,969	72,11
