Data from palm_tumJ_v_45_90_Reflection_00004.txt Node
Date: Fri Feb 11 14:57:31 ART 2022
User: Nati
Spectrometer: USB2E3644
Trigger mode: 4
Integration Time (sec): 3,520000E-1
Scans to average: 10
Electric dark correction enabled: true
Nonlinearity correction enabled: false
Boxcar width: 10
XAxis mode: Wavelengths
Number of Pixels in Spectrum: 2048
>>>>>Begin Spectral Data<<<<<
178,315	-154,26
178,696	-550
179,076	-101,97
179,457	-16,35
179,838	-144,12
180,218	363,64
180,599	14,37
180,979	-97,14
181,36	107,95
181,74	-59,62
182,121	4550
182,501	280,77
182,881	129,59
183,262	113,07
183,642	102,75
184,022	121,81
184,402	104,78
184,783	162,94
185,163	790,62
185,543	-677,5
185,923	-148,8
186,303	-39,78
186,683	-35,86
187,063	-1,54
187,443	10,98
187,823	3,63
188,203	9,73
188,583	7,65
188,963	2,31
189,343	-8,99
189,723	-6,05
190,102	-6,09
190,482	-7,48
190,862	-1,41
191,242	3,14
191,621	1,5
192,001	3,48
192,38	4,54
192,76	3,36
193,14	-0,91
193,519	0,33
193,898	-0,91
194,278	-11,25
194,657	-18,6
195,037	-32,36
195,416	-49,91
195,795	-61,26
196,175	-80,15
196,554	-100,37
196,933	-126,42
197,312	-120,9
197,692	-126,32
198,071	-119,76
198,45	-107,54
198,829	-113,88
199,208	-104,45
199,587	-99,6
199,966	-106,16
200,345	-151,74
200,724	-178,98
201,103	-167,14
201,482	-202,67
201,86	-163,26
202,239	-132,51
202,618	-150,9
202,997	-97,12
203,375	-71,09
203,754	-57,51
204,133	-42,05
204,511	-21,32
204,89	0,67
205,269	2,76
205,647	8,63
206,026	9,41
206,404	7,8
206,782	-0,11
207,161	-6,91
207,539	-8,11
207,918	3,13
208,296	8,67
208,674	8,8
209,052	10,59
209,431	12,85
209,809	5,7
210,187	-0,57
210,565	1,33
210,943	-8,06
211,321	-10,6
211,699	-8,47
212,077	-10,88
212,455	-23,29
212,833	-37,82
213,211	-44,22
213,589	-59,85
213,967	-66,7
214,345	-65,33
214,722	-47
215,1	-35,58
215,478	-32,53
215,855	-29,49
216,233	-27,96
216,611	-41,06
216,988	-56,76
217,366	-55,65
217,743	-59,03
218,121	-51,16
218,498	-43,93
218,876	-27,03
219,253	-25,37
219,631	-37,65
220,008	-46,62
220,385	-33,47
220,762	-23,48
221,14	-17
221,517	-10,1
221,894	-5,28
222,271	-3,55
222,648	-15,25
223,025	-23,5
223,402	-39,53
223,78	-57,8
224,157	-51,67
224,533	-39,69
224,91	-30,27
225,287	-32,71
225,664	-15,85
226,041	-6,96
226,418	-7,02
226,795	-18,35
227,171	-20,32
227,548	-14,12
227,925	-8,71
228,301	-4,53
228,678	-7,05
229,055	-10,52
229,431	-15,01
229,808	-12,68
230,184	-11,07
230,561	-2,38
230,937	-1,21
231,313	-0,85
231,69	-3,69
232,066	-7,58
232,442	-13,26
232,819	-15,56
233,195	-15,79
233,571	-24,75
233,947	-30,26
234,323	-33,76
234,699	-34,19
235,075	-32,25
235,451	-27,89
235,827	-22,51
236,203	-27,81
236,579	-30,51
236,955	-31,45
237,331	-26,68
237,707	-28,36
238,083	-26,28
238,459	-27,34
238,834	-23,36
239,21	-14,93
239,586	-9,67
239,961	-9,14
240,337	-4,39
240,713	-1,87
241,088	-0,51
241,464	1,95
241,839	1,3
242,215	1,09
242,59	-0,41
242,965	-0,25
243,341	-0,3
243,716	-1,36
244,091	-1,24
244,467	0,35
244,842	1,82
245,217	2,3
245,592	3,19
245,967	4,15
246,343	3,02
246,718	2,58
247,093	1,16
247,468	-0,01
247,843	-0,43
248,218	-0,36
248,593	-1,36
248,967	-1,64
249,342	-1,38
249,717	-1,09
250,092	0,15
250,467	1,4
250,841	1,45
251,216	0,99
251,591	0,93
251,965	1,17
252,34	0,47
252,714	0,83
253,089	0,63
253,463	-0,44
253,838	-2,1
254,212	-1,89
254,587	-0,56
254,961	1,23
255,335	2,51
255,71	4,26
256,084	4,36
256,458	4,56
256,832	5,34
257,206	5,57
257,581	5,64
257,955	4,6
258,329	4,18
258,703	4,08
259,077	4,23
259,451	4,15
259,825	4,38
260,199	4,17
260,572	3,14
260,946	3,28
261,32	3,67
261,694	3,8
262,068	3,91
262,441	3,93
262,815	3,64
263,189	3,69
263,562	3,68
263,936	3,31
264,309	3,61
264,683	2,91
265,056	2,29
265,43	2,12
265,803	2,74
266,176	3,68
266,55	4,03
266,923	3,79
267,296	3,39
267,67	3,68
268,043	4,12
268,416	4,82
268,789	4,93
269,162	5,01
269,535	5,34
269,908	5,48
270,281	5,65
270,654	5,57
271,027	4,85
271,4	4,89
271,773	5,25
272,146	5,37
272,519	5,46
272,891	5,12
273,264	5,1
273,637	5,03
274,01	4,81
274,382	4,66
274,755	5,31
275,127	5,97
275,5	5,71
275,872	5,63
276,245	5,38
276,617	5,21
276,99	4,76
277,362	4,51
277,734	4,46
278,107	4,02
278,479	3,98
278,851	4,62
279,223	4,6
279,596	4,74
279,968	4,9
280,34	5,13
280,712	5,48
281,084	5,46
281,456	5,49
281,828	5,42
282,2	5,56
282,572	5,22
282,944	5,43
283,315	5,89
283,687	6,08
284,059	6,2
284,431	6,3
284,802	6,41
285,174	6,18
285,546	6,19
285,917	6,2
286,289	6,28
286,66	6,04
287,032	5,66
287,403	5,5
287,775	5,29
288,146	5,01
288,518	4,88
288,889	4,75
289,26	4,75
289,632	4,86
290,003	4,89
290,374	4,85
290,745	4,71
291,116	4,25
291,487	4,11
291,858	4,11
292,229	3,89
292,6	3,75
292,971	3,95
293,342	4,18
293,713	4,11
294,084	3,86
294,455	3,64
294,826	3,72
295,196	3,53
295,567	3,71
295,938	3,86
296,308	3,75
296,679	3,85
297,05	3,71
297,42	3,54
297,791	3,49
298,161	3,72
298,532	3,38
298,902	3,44
299,272	3,2
299,643	2,91
300,013	2,85
300,383	2,87
300,754	2,79
301,124	2,55
301,494	2,34
301,864	2,27
302,234	2,69
302,604	2,76
302,974	2,89
303,344	2,58
303,714	2,41
304,084	2,76
304,454	2,77
304,824	2,78
305,194	2,67
305,563	2,85
305,933	2,94
306,303	3,34
306,673	3,4
307,042	3,42
307,412	3,6
307,781	3,74
308,151	3,92
308,521	3,91
308,89	3,86
309,259	3,68
309,629	3,66
309,998	3,36
310,368	3,3
310,737	3,19
311,106	3,24
311,475	3,39
311,845	3,37
312,214	3,32
312,583	3,27
312,952	3,25
313,321	3,2
313,69	3,04
314,059	2,81
314,428	2,81
314,797	2,87
315,166	2,92
315,535	3,01
315,904	3,14
316,272	3,3
316,641	3,18
317,01	3,35
317,379	3,32
317,747	3,36
318,116	3,28
318,484	3,26
318,853	3,36
319,221	3,41
319,59	3,45
319,958	3,6
320,327	3,64
320,695	3,74
321,063	3,59
321,432	3,51
321,8	3,54
322,168	3,4
322,536	3,64
322,905	3,79
323,273	3,6
323,641	3,35
324,009	3,22
324,377	3,41
324,745	3,55
325,113	3,66
325,481	3,72
325,849	3,66
326,216	3,65
326,584	3,49
326,952	3,38
327,32	3,33
327,687	3,27
328,055	3,22
328,423	3,26
328,79	3,37
329,158	3,44
329,525	3,4
329,893	3,5
330,26	3,61
330,628	3,48
330,995	3,55
331,362	3,5
331,73	3,48
332,097	3,57
332,464	3,6
332,831	3,66
333,199	3,7
333,566	3,82
333,933	3,82
334,3	3,98
334,667	3,99
335,034	4,02
335,401	4,09
335,768	4,16
336,135	4,1
336,502	3,99
336,868	3,87
337,235	3,86
337,602	3,8
337,969	3,68
338,335	3,68
338,702	3,61
339,069	3,61
339,435	3,59
339,802	3,54
340,168	3,48
340,535	3,33
340,901	3,25
341,267	3,29
341,634	3,36
342	3,36
342,366	3,38
342,733	3,43
343,099	3,4
343,465	3,43
343,831	3,51
344,197	3,53
344,563	3,58
344,929	3,65
345,295	3,62
345,661	3,56
346,027	3,57
346,393	3,57
346,759	3,63
347,125	3,63
347,491	3,64
347,856	3,81
348,222	3,96
348,588	4,05
348,953	4,02
349,319	3,99
349,684	3,92
350,05	3,9
350,415	3,76
350,781	3,74
351,146	3,71
351,512	3,69
351,877	3,71
352,242	3,67
352,608	3,67
352,973	3,75
353,338	3,77
353,703	3,71
354,068	3,71
354,433	3,7
354,798	3,69
355,164	3,64
355,528	3,46
355,893	3,42
356,258	3,4
356,623	3,45
356,988	3,48
357,353	3,5
357,718	3,5
358,082	3,58
358,447	3,53
358,812	3,48
359,176	3,44
359,541	3,46
359,905	3,51
360,27	3,49
360,634	3,44
360,999	3,37
361,363	3,35
361,728	3,35
362,092	3,3
362,456	3,28
362,821	3,24
363,185	3,28
363,549	3,25
363,913	3,25
364,277	3,21
364,641	3,19
365,005	3,16
365,369	3,19
365,733	3,13
366,097	3,17
366,461	3,24
366,825	3,27
367,189	3,21
367,553	3,15
367,916	3,13
368,28	3,09
368,644	3,1
369,007	3,09
369,371	3,11
369,734	3,13
370,098	3,12
370,461	3,15
370,825	3,22
371,188	3,22
371,552	3,22
371,915	3,24
372,278	3,21
372,642	3,22
373,005	3,18
373,368	3,18
373,731	3,14
374,094	3,11
374,457	3,13
374,82	3,18
375,183	3,17
375,546	3,15
375,909	3,17
376,272	3,25
376,635	3,29
376,998	3,28
377,361	3,27
377,723	3,26
378,086	3,27
378,449	3,23
378,811	3,26
379,174	3,25
379,537	3,19
379,899	3,19
380,262	3,2
380,624	3,24
380,987	3,28
381,349	3,33
381,711	3,33
382,074	3,26
382,436	3,24
382,798	3,3
383,16	3,33
383,522	3,3
383,884	3,25
384,247	3,31
384,609	3,33
384,971	3,33
385,333	3,36
385,695	3,37
386,056	3,36
386,418	3,34
386,78	3,36
387,142	3,38
387,504	3,4
387,865	3,42
388,227	3,41
388,589	3,37
388,95	3,36
389,312	3,41
389,673	3,49
390,035	3,53
390,396	3,51
390,758	3,5
391,119	3,55
391,48	3,56
391,842	3,53
392,203	3,52
392,564	3,53
392,925	3,55
393,286	3,51
393,648	3,51
394,009	3,52
394,37	3,48
394,731	3,46
395,092	3,46
395,452	3,43
395,813	3,41
396,174	3,45
396,535	3,45
396,896	3,4
397,257	3,32
397,617	3,28
397,978	3,28
398,338	3,28
398,699	3,25
399,06	3,27
399,42	3,23
399,781	3,24
400,141	3,23
400,501	3,24
400,862	3,29
401,222	3,29
401,582	3,28
401,943	3,32
402,303	3,37
402,663	3,38
403,023	3,41
403,383	3,44
403,743	3,44
404,103	3,44
404,463	3,46
404,823	3,48
405,183	3,51
405,543	3,51
405,903	3,54
406,262	3,56
406,622	3,54
406,982	3,58
407,342	3,6
407,701	3,6
408,061	3,61
408,42	3,61
408,78	3,61
409,139	3,63
409,499	3,62
409,858	3,6
410,217	3,6
410,577	3,59
410,936	3,6
411,295	3,58
411,655	3,59
412,014	3,61
412,373	3,64
412,732	3,65
413,091	3,69
413,45	3,69
413,809	3,71
414,168	3,73
414,527	3,75
414,886	3,76
415,245	3,77
415,603	3,79
415,962	3,81
416,321	3,83
416,679	3,82
417,038	3,84
417,397	3,86
417,755	3,86
418,114	3,88
418,472	3,9
418,831	3,93
419,189	3,95
419,547	3,96
419,906	3,98
420,264	3,99
420,622	4
420,981	4,04
421,339	4,05
421,697	4,07
422,055	4,09
422,413	4,12
422,771	4,15
423,129	4,16
423,487	4,18
423,845	4,2
424,203	4,23
424,56	4,25
424,918	4,28
425,276	4,33
425,634	4,36
425,991	4,4
426,349	4,42
426,707	4,44
427,064	4,46
427,422	4,49
427,779	4,55
428,137	4,59
428,494	4,61
428,851	4,66
429,209	4,7
429,566	4,73
429,923	4,76
430,28	4,8
430,637	4,86
430,995	4,87
431,352	4,9
431,709	4,93
432,066	4,98
432,423	5
432,78	5,03
433,137	5,06
433,493	5,06
433,85	5,14
434,207	5,11
434,564	5,13
434,92	5,15
435,277	5,16
435,634	5,19
435,99	5,22
436,347	5,23
436,703	5,28
437,06	5,31
437,416	5,34
437,773	5,36
438,129	5,37
438,485	5,46
438,841	5,47
439,198	5,49
439,554	5,5
439,91	5,52
440,266	5,53
440,622	5,55
440,978	5,58
441,334	5,55
441,69	5,62
442,046	5,64
442,402	5,66
442,758	5,69
443,113	5,69
443,469	5,71
443,825	5,73
444,181	5,73
444,536	5,76
444,892	5,77
445,247	5,78
445,603	5,78
445,958	5,76
446,314	5,79
446,669	5,82
447,025	5,83
447,38	5,84
447,735	5,87
448,09	5,89
448,446	5,91
448,801	5,93
449,156	5,94
449,511	5,95
449,866	5,97
450,221	5,98
450,576	6,02
450,931	6,06
451,286	6,1
451,641	6,14
451,995	6,16
452,35	6,19
452,705	6,2
453,06	6,23
453,414	6,26
453,769	6,26
454,123	6,26
454,478	6,29
454,832	6,32
455,187	6,29
455,541	6,32
455,896	6,32
456,25	6,32
456,604	6,33
456,958	6,35
457,313	6,36
457,667	6,38
458,021	6,4
458,375	6,4
458,729	6,42
459,083	6,41
459,437	6,41
459,791	6,41
460,145	6,44
460,499	6,45
460,852	6,44
461,206	6,47
461,56	6,47
461,914	6,46
462,267	6,44
462,621	6,48
462,974	6,48
463,328	6,5
463,681	6,53
464,035	6,56
464,388	6,57
464,742	6,59
465,095	6,61
465,448	6,62
465,801	6,6
466,155	6,6
466,508	6,63
466,861	6,64
467,214	6,64
467,567	6,62
467,92	6,63
468,273	6,64
468,626	6,62
468,979	6,65
469,332	6,66
469,684	6,67
470,037	6,67
470,39	6,67
470,743	6,69
471,095	6,69
471,448	6,69
471,8	6,7
472,153	6,71
472,505	6,71
472,858	6,69
473,21	6,72
473,562	6,72
473,915	6,71
474,267	6,71
474,619	6,73
474,971	6,73
475,324	6,74
475,676	6,78
476,028	6,76
476,38	6,74
476,732	6,74
477,084	6,74
477,436	6,74
477,787	6,75
478,139	6,75
478,491	6,73
478,843	6,7
479,195	6,71
479,546	6,67
479,898	6,67
480,249	6,66
480,601	6,65
480,952	6,65
481,304	6,67
481,655	6,67
482,007	6,66
482,358	6,66
482,709	6,65
483,061	6,62
483,412	6,63
483,763	6,63
484,114	6,62
484,465	6,61
484,816	6,61
485,167	6,6
485,518	6,6
485,869	6,61
486,22	6,62
486,571	6,62
486,922	6,64
487,272	6,65
487,623	6,66
487,974	6,66
488,324	6,66
488,675	6,65
489,025	6,66
489,376	6,67
489,726	6,69
490,077	6,71
490,427	6,73
490,778	6,74
491,128	6,78
491,478	6,81
491,828	6,85
492,179	6,87
492,529	6,92
492,879	6,94
493,229	6,96
493,579	6,98
493,929	6,99
494,279	7,01
494,629	7,02
494,979	7,05
495,328	7,09
495,678	7,14
496,028	7,18
496,378	7,22
496,727	7,27
497,077	7,29
497,426	7,34
497,776	7,34
498,125	7,37
498,475	7,39
498,824	7,43
499,174	7,45
499,523	7,49
499,872	7,5
500,221	7,54
500,571	7,58
500,92	7,63
501,269	7,71
501,618	7,74
501,967	7,78
502,316	7,82
502,665	7,88
503,014	7,92
503,363	7,96
503,711	8
504,06	8,05
504,409	8,11
504,758	8,12
505,106	8,2
505,455	8,26
505,803	8,3
506,152	8,32
506,5	8,36
506,849	8,41
507,197	8,44
507,546	8,5
507,894	8,54
508,242	8,6
508,59	8,65
508,939	8,71
509,287	8,79
509,635	8,83
509,983	8,9
510,331	8,95
510,679	9,02
511,027	9,08
511,375	9,14
511,723	9,19
512,07	9,28
512,418	9,35
512,766	9,41
513,114	9,49
513,461	9,57
513,809	9,65
514,156	9,72
514,504	9,84
514,851	9,9
515,199	9,99
515,546	10,08
515,893	10,17
516,241	10,28
516,588	10,36
516,935	10,48
517,282	10,54
517,63	10,63
517,977	10,7
518,324	10,77
518,671	10,84
519,018	10,92
519,365	10,97
519,711	11,06
520,058	11,15
520,405	11,21
520,752	11,31
521,099	11,39
521,445	11,49
521,792	11,56
522,138	11,67
522,485	11,76
522,832	11,87
523,178	11,96
523,524	12,03
523,871	12,13
524,217	12,23
524,563	12,34
524,91	12,44
525,256	12,54
525,602	12,67
525,948	12,75
526,294	12,81
526,64	12,87
526,986	12,91
527,332	12,94
527,678	12,99
528,024	13,03
528,37	13,08
528,716	13,11
529,061	13,16
529,407	13,2
529,753	13,26
530,098	13,32
530,444	13,37
530,789	13,42
531,135	13,45
531,48	13,49
531,826	13,52
532,171	13,57
532,516	13,64
532,862	13,68
533,207	13,72
533,552	13,77
533,897	13,82
534,242	13,87
534,587	13,92
534,932	13,97
535,277	14
535,622	14,02
535,967	14,08
536,312	14,12
536,657	14,17
537,001	14,21
537,346	14,25
537,691	14,31
538,035	14,33
538,38	14,37
538,724	14,39
539,069	14,41
539,413	14,44
539,758	14,45
540,102	14,49
540,446	14,52
540,791	14,54
541,135	14,57
541,479	14,6
541,823	14,62
542,167	14,62
542,512	14,65
542,856	14,65
543,2	14,64
543,543	14,63
543,887	14,65
544,231	14,67
544,575	14,69
544,919	14,7
545,262	14,75
545,606	14,77
545,95	14,79
546,293	14,84
546,637	14,86
546,98	14,91
547,324	14,93
547,667	14,99
548,011	15,01
548,354	15,03
548,697	15,02
549,04	15,04
549,384	15,06
549,727	15,04
550,07	15,1
550,413	15,15
550,756	15,17
551,099	15,2
551,442	15,2
551,785	15,25
552,128	15,26
552,47	15,26
552,813	15,26
553,156	15,25
553,499	15,24
553,841	15,23
554,184	15,24
554,526	15,23
554,869	15,19
555,211	15,19
555,554	15,19
555,896	15,19
556,238	15,18
556,581	15,17
556,923	15,18
557,265	15,18
557,607	15,15
557,949	15,17
558,291	15,14
558,633	15,1
558,975	15,07
559,317	15,02
559,659	15,01
560,001	14,98
560,343	14,99
560,685	14,97
561,026	14,95
561,368	14,91
561,71	14,88
562,051	14,85
562,393	14,86
562,734	14,76
563,076	14,74
563,417	14,69
563,759	14,65
564,1	14,63
564,441	14,59
564,782	14,54
565,124	14,45
565,465	14,44
565,806	14,41
566,147	14,37
566,488	14,36
566,829	14,31
567,17	14,27
567,511	14,23
567,851	14,2
568,192	14,16
568,533	14,12
568,874	14,08
569,214	14,02
569,555	13,95
569,895	13,95
570,236	13,92
570,576	13,88
570,917	13,83
571,257	13,77
571,598	13,72
571,938	13,69
572,278	13,66
572,618	13,61
572,959	13,57
573,299	13,53
573,639	13,48
573,979	13,48
574,319	13,41
574,659	13,35
574,999	13,31
575,339	13,28
575,678	13,24
576,018	13,17
576,358	13,14
576,698	13,11
577,037	13,08
577,377	13,03
577,716	12,98
578,056	12,95
578,395	12,9
578,735	12,86
579,074	12,83
579,413	12,8
579,753	12,8
580,092	12,75
580,431	12,71
580,77	12,7
581,109	12,65
581,448	12,68
581,787	12,61
582,126	12,57
582,465	12,53
582,804	12,5
583,143	12,53
583,482	12,5
583,82	12,44
584,159	12,41
584,498	12,38
584,836	12,4
585,175	12,37
585,514	12,36
585,852	12,34
586,19	12,3
586,529	12,29
586,867	12,24
587,205	12,24
587,544	12,24
587,882	12,21
588,22	12,15
588,558	12,12
588,896	12,15
589,234	12,13
589,572	12,11
589,91	12,1
590,248	12,05
590,586	12,05
590,924	12,04
591,262	12,04
591,599	12
591,937	12
592,275	11,98
592,612	11,99
592,95	11,96
593,287	11,99
593,625	11,94
593,962	11,91
594,299	11,88
594,637	11,86
594,974	11,86
595,311	11,86
595,648	11,86
595,985	11,86
596,322	11,85
596,659	11,92
596,996	11,9
597,333	11,86
597,67	11,83
598,007	11,84
598,344	11,82
598,681	11,88
599,017	11,8
599,354	11,8
599,691	11,79
600,027	11,8
600,364	11,74
600,7	11,75
601,037	11,75
601,373	11,72
601,71	11,67
602,046	11,64
602,382	11,61
602,718	11,59
603,054	11,55
603,391	11,52
603,727	11,44
604,063	11,45
604,399	11,44
604,735	11,42
605,071	11,4
605,406	11,37
605,742	11,31
606,078	11,33
606,414	11,28
606,749	11,23
607,085	11,18
607,421	11,16
607,756	11,14
608,092	11,1
608,427	11,08
608,762	11,08
609,098	11,08
609,433	11,07
609,768	11,02
610,104	11,04
610,439	11,02
610,774	11,04
611,109	10,95
611,444	10,99
611,779	10,99
612,114	10,95
612,449	10,92
612,784	10,89
613,118	10,85
613,453	10,88
613,788	10,89
614,123	10,87
614,457	10,86
614,792	10,85
615,126	10,85
615,461	10,81
615,795	10,79
616,13	10,74
616,464	10,72
616,798	10,7
617,132	10,66
617,467	10,64
617,801	10,59
618,135	10,63
618,469	10,58
618,803	10,56
619,137	10,56
619,471	10,54
619,805	10,5
620,139	10,48
620,472	10,44
620,806	10,38
621,14	10,34
621,473	10,32
621,807	10,29
622,141	10,3
622,474	10,29
622,808	10,27
623,141	10,27
623,474	10,23
623,808	10,19
624,141	10,17
624,474	10,16
624,807	10,11
625,141	10,06
625,474	10,05
625,807	10,06
626,14	10,06
626,473	10,08
626,806	10,08
627,138	10,11
627,471	10,05
627,804	10,06
628,137	10,13
628,469	10,09
628,802	10,12
629,135	10,11
629,467	10,12
629,8	10,12
630,132	10,11
630,465	10,14
630,797	10,19
631,129	10,16
631,461	10,14
631,794	10,18
632,126	10,12
632,458	10,11
632,79	10,08
633,122	10,09
633,454	10,05
633,786	10,05
634,118	10,02
634,45	10,09
634,781	10,08
635,113	10,03
635,445	10,04
635,777	10,01
636,108	9,98
636,44	9,96
636,771	9,95
637,103	9,92
637,434	9,86
637,765	9,78
638,097	9,84
638,428	9,82
638,759	9,78
639,09	9,84
639,422	9,84
639,753	9,83
640,084	9,79
640,415	9,8
640,746	9,82
641,077	9,77
641,407	9,73
641,738	9,73
642,069	9,68
642,4	9,63
642,73	9,62
643,061	9,59
643,392	9,57
643,722	9,54
644,053	9,55
644,383	9,55
644,713	9,57
645,044	9,49
645,374	9,48
645,704	9,43
646,034	9,39
646,365	9,34
646,695	9,33
647,025	9,34
647,355	9,25
647,685	9,15
648,015	9,15
648,344	9,15
648,674	9,13
649,004	9,12
649,334	9,11
649,663	9,04
649,993	9,06
650,323	9,03
650,652	8,97
650,982	8,95
651,311	8,93
651,64	8,88
651,97	8,84
652,299	8,82
652,628	8,82
652,958	8,83
653,287	8,88
653,616	8,82
653,945	8,75
654,274	8,77
654,603	8,74
654,932	8,73
655,261	8,67
655,589	8,64
655,918	8,61
656,247	8,57
656,576	8,57
656,904	8,5
657,233	8,48
657,561	8,43
657,89	8,35
658,218	8,31
658,547	8,29
658,875	8,27
659,203	8,23
659,532	8,18
659,86	8,11
660,188	8,02
660,516	8,01
660,844	7,97
661,172	7,93
661,5	7,91
661,828	7,87
662,156	7,86
662,484	7,81
662,811	7,76
663,139	7,7
663,467	7,65
663,794	7,6
664,122	7,52
664,45	7,51
664,777	7,51
665,104	7,53
665,432	7,43
665,759	7,37
666,086	7,36
666,414	7,34
666,741	7,34
667,068	7,29
667,395	7,25
667,722	7,23
668,049	7,23
668,376	7,21
668,703	7,12
669,03	7,07
669,357	7,03
669,683	6,99
670,01	7,02
670,337	7,01
670,663	7,02
670,99	7,04
671,317	7,05
671,643	7,05
671,969	7,01
672,296	7,06
672,622	7,1
672,948	7,09
673,275	7,05
673,601	7
673,927	7,03
674,253	7,05
674,579	7,06
674,905	7
675,231	6,99
675,557	7,01
675,883	7,02
676,209	7,07
676,534	7,08
676,86	7,05
677,186	7,05
677,511	7,04
677,837	7,02
678,162	6,99
678,488	6,96
678,813	7,02
679,139	7,04
679,464	7,07
679,789	7,03
680,114	7,05
680,44	7,08
680,765	7,07
681,09	7,09
681,415	7,14
681,74	7,23
682,065	7,31
682,39	7,34
682,714	7,37
683,039	7,35
683,364	7,42
683,689	7,48
684,013	7,53
684,338	7,61
684,662	7,72
684,987	7,8
685,311	7,84
685,636	7,88
685,96	7,94
686,284	8,01
686,608	8,15
686,933	8,27
687,257	8,36
687,581	8,47
687,905	8,53
688,229	8,58
688,553	8,64
688,877	8,68
689,201	8,83
689,524	8,98
689,848	9,21
690,172	9,35
690,496	9,51
690,819	9,63
691,143	9,74
691,466	9,82
691,79	9,96
692,113	10,17
692,436	10,28
692,76	10,5
693,083	10,69
693,406	10,89
693,729	11,1
694,053	11,33
694,376	11,51
694,699	11,72
695,022	11,95
695,344	12,14
695,667	12,43
695,99	12,56
696,313	12,77
696,636	12,86
696,958	13,02
697,281	13,16
697,604	13,35
697,926	13,53
698,249	13,8
698,571	13,93
698,893	14,11
699,216	14,29
699,538	14,45
699,86	14,52
700,182	14,62
700,504	14,76
700,827	14,92
701,149	15,16
701,471	15,35
701,793	15,52
702,114	15,8
702,436	16,05
702,758	16,43
703,08	16,73
703,401	17,1
703,723	17,45
704,045	17,71
704,366	18,07
704,688	18,37
705,009	18,53
705,331	18,92
705,652	19,07
705,973	19,31
706,294	19,5
706,616	19,82
706,937	20,08
707,258	20,33
707,579	20,5
707,9	20,71
708,221	20,98
708,542	21,24
708,863	21,54
709,183	21,77
709,504	22,03
709,825	22,26
710,145	22,42
710,466	22,58
710,787	22,84
711,107	22,99
711,427	23,16
711,748	23,42
712,068	23,64
712,388	23,92
712,709	24,14
713,029	24,44
713,349	24,7
713,669	25
713,989	25,26
714,309	25,58
714,629	25,78
714,949	26,04
715,269	26,34
715,589	26,61
715,908	26,89
716,228	27,11
716,548	27,32
716,867	27,62
717,187	27,9
717,506	28,23
717,826	28,53
718,145	28,9
718,465	29,17
718,784	29,4
719,103	29,72
719,422	30,09
719,741	30,34
720,061	30,58
720,38	30,86
720,699	31,09
721,018	31,37
721,336	31,69
721,655	31,99
721,974	32,24
722,293	32,5
722,612	32,8
722,93	33,11
723,249	33,46
723,567	33,76
723,886	34,02
724,204	34,31
724,523	34,66
724,841	34,82
725,159	35,16
725,477	35,5
725,796	35,8
726,114	36,15
726,432	36,59
726,75	36,92
727,068	37,13
727,386	37,43
727,704	37,76
728,022	38,06
728,339	38,4
728,657	38,73
728,975	39,15
729,292	39,43
729,61	39,65
729,928	39,84
730,245	40,1
730,562	40,39
730,88	40,67
731,197	40,88
731,514	41,2
731,832	41,34
732,149	41,54
732,466	41,81
732,783	42,13
733,1	42,21
733,417	42,51
733,734	42,85
734,051	43,05
734,368	43,29
734,684	43,61
735,001	43,97
735,318	44,16
735,634	44,2
735,951	44,44
736,268	44,7
736,584	45,02
736,9	45,37
737,217	45,66
737,533	45,93
737,849	46,15
738,166	46,25
738,482	46,51
738,798	46,84
739,114	47,12
739,43	47,01
739,746	47,31
740,062	47,52
740,378	47,63
740,693	48,07
741,009	48,33
741,325	48,42
741,641	48,41
741,956	48,65
742,272	48,84
742,587	48,98
742,903	49,14
743,218	49,23
743,533	49,26
743,849	49,54
744,164	49,72
744,479	49,95
744,794	50,12
745,109	50,29
745,424	50,31
745,739	50,3
746,054	50,58
746,369	50,66
746,684	50,84
746,999	51,04
747,313	50,94
747,628	51,01
747,943	51,28
748,257	51,35
748,572	51,45
748,886	51,68
749,201	51,76
749,515	51,96
749,829	51,99
750,144	52,02
750,458	51,98
750,772	51,98
751,086	52,13
751,4	52,24
751,714	52,34
752,028	52,4
752,342	52,49
752,656	52,63
752,97	52,7
753,284	52,69
753,597	52,72
753,911	52,83
754,225	52,86
754,538	52,63
754,852	52,77
755,165	52,81
755,478	52,85
755,792	52,78
756,105	52,77
756,418	52,94
756,731	53,2
757,045	53,16
757,358	53,1
757,671	53,13
757,984	53,37
758,297	53,47
758,609	53,59
758,922	53,67
759,235	53,66
759,548	53,61
759,86	53,6
760,173	53,57
760,486	53,65
760,798	53,84
761,111	53,99
761,423	54
761,735	54,14
762,048	53,94
762,36	54,1
762,672	54,15
762,984	54,16
763,296	54,05
763,608	54,18
763,92	54,23
764,232	54,26
764,544	54,18
764,856	54,31
765,168	54,28
765,48	54,22
765,791	54,27
766,103	54,36
766,414	54,36
766,726	54,42
767,037	54,49
767,349	54,38
767,66	54,44
767,972	54,31
768,283	54,16
768,594	54,43
768,905	54,36
769,216	54,49
769,527	54,49
769,838	54,64
770,149	54,76
770,46	54,9
770,771	54,77
771,082	54,69
771,393	54,53
771,703	54,5
772,014	54,7
772,324	54,57
772,635	54,56
772,945	54,79
773,256	54,88
773,566	54,72
773,877	54,66
774,187	54,68
774,497	55
774,807	55,1
775,117	55,08
775,427	55,1
775,737	54,8
776,047	54,95
776,357	55
776,667	54,85
776,977	54,52
777,287	54,49
777,596	54,52
777,906	54,44
778,216	54,61
778,525	54,36
778,835	54,77
779,144	53,68
779,453	53,29
779,763	53,1
780,072	52,98
780,381	52,97
780,69	53,08
781	52,78
781,309	52,69
781,618	52,65
781,927	52,61
782,235	52,76
782,544	52,61
782,853	52,32
783,162	52,38
783,471	52,97
783,779	53,01
784,088	53,02
784,396	53,15
784,705	52,99
785,013	52,88
785,322	52,44
785,63	53,76
785,938	53,83
786,246	54,16
786,554	54,13
786,863	54,01
787,171	53,74
787,479	53,7
787,787	53,7
788,094	53,67
788,402	53,57
788,71	53,5
789,018	53,57
789,326	53,69
789,633	53,4
789,941	53,26
790,248	53,35
790,556	53,5
790,863	53,51
791,171	53,58
791,478	53,76
791,785	54,13
792,092	54,15
792,399	54,42
792,707	54,43
793,014	54,76
793,321	54,95
793,628	55,22
793,934	55,3
794,241	55,34
794,548	55,14
794,855	55,57
795,161	55,75
795,468	55,81
795,775	56,18
796,081	56,33
796,388	56,3
796,694	56,15
797	56,19
797,307	56,11
797,613	56,4
797,919	56,57
798,225	56,35
798,531	56,34
798,837	56,32
799,143	56,05
799,449	55,77
799,755	55,74
800,061	55,7
800,367	55,99
800,672	56,12
800,978	56,29
801,284	55,85
801,589	55,53
801,895	55,47
802,2	55,22
802,506	55,31
802,811	55,28
803,116	55,52
803,421	55,39
803,727	55,3
804,032	54,95
804,337	54,99
804,642	55,08
804,947	55,01
805,252	54,76
805,556	54,72
805,861	55,05
806,166	55,04
806,471	54,84
806,775	54,74
807,08	54,78
807,384	55,19
807,689	55,55
807,993	55,83
808,298	55,71
808,602	55,52
808,906	55,51
809,211	55,47
809,515	55,18
809,819	55,16
810,123	55,51
810,427	55,91
810,731	55,89
811,035	55,58
811,338	55,66
811,642	55,75
811,946	56,03
812,25	56,14
812,553	56,01
812,857	56,1
813,16	56,07
813,464	55,86
813,767	55,36
814,07	55,02
814,374	54,73
814,677	54,65
814,98	54,87
815,283	54,94
815,586	54,68
815,889	55,2
816,192	55,21
816,495	54,61
816,798	54,7
817,101	54,45
817,404	54,58
817,706	54,43
818,009	54,54
818,312	54,69
818,614	54,36
818,917	54,48
819,219	54,67
819,521	54,92
819,824	55,2
820,126	55,39
820,428	55,52
820,73	55,66
821,032	55,74
821,334	55,65
821,636	55,66
821,938	55,8
822,24	55,71
822,542	55,73
822,844	55,79
823,145	55,69
823,447	55,72
823,749	55,65
824,05	55,6
824,352	55,66
824,653	55,65
824,955	55,69
825,256	55,79
825,557	55,8
825,858	55,82
826,16	55,73
826,461	55,74
826,762	55,79
827,063	55,76
827,364	55,87
827,665	55,96
827,965	56,03
828,266	55,96
828,567	55,93
828,868	55,88
829,168	55,95
829,469	56,02
829,769	56,08
830,07	56,07
830,37	56,1
830,67	55,9
830,971	55,69
831,271	55,7
831,571	55,44
831,871	55,14
832,171	54,96
832,471	55,03
832,771	55,05
833,071	55,07
833,371	55,18
833,671	55,03
833,971	55,04
834,27	54,84
834,57	54,6
834,869	54,65
835,169	54,8
835,468	54,76
835,768	54,71
836,067	54,5
836,367	54,82
836,666	55,02
836,965	54,92
837,264	55,14
837,563	54,99
837,862	54,9
838,161	55,27
838,46	55,2
838,759	55,14
839,058	54,7
839,356	54,77
839,655	54,22
839,954	53,79
840,252	53,72
840,551	54,08
840,849	54,57
841,148	54,61
841,446	53,64
841,744	53,15
842,043	52,79
842,341	53,4
842,639	53,28
842,937	53,52
843,235	54,09
843,533	54,7
843,831	55,34
844,129	55,79
844,427	55,86
844,724	56,43
845,022	56,33
845,32	56,61
845,617	55,97
845,915	56,85
846,212	57,57
846,51	58,15
846,807	57,84
847,104	57,45
847,402	56,8
847,699	58,23
847,996	59,58
848,293	60,64
848,59	59,92
848,887	60,25
849,184	59,06
849,481	58,5
849,778	58,05
850,074	57,71
850,371	57,48
850,668	57,69
850,964	57,52
851,261	57,69
851,557	57,71
851,854	56,4
852,15	55,39
852,446	54,67
852,743	53,9
853,039	53,01
853,335	53,2
853,631	53,76
853,927	53,92
854,223	52,32
854,519	51,96
854,815	51,85
855,111	51,61
855,406	51,96
855,702	52,06
855,998	51,54
856,293	51,96
856,589	51,82
856,884	51,62
857,18	50,88
857,475	50,34
857,77	50,04
858,066	50,54
858,361	49,88
858,656	50,23
858,951	49,73
859,246	50,71
859,541	50,29
859,836	49,75
860,131	48,85
860,426	50
860,72	49,63
861,015	48,65
861,31	48,46
861,604	48,9
861,899	48,48
862,193	47,92
862,487	47,89
862,782	48,68
863,076	47,88
863,37	49,4
863,664	50,19
863,959	49,77
864,253	49,01
864,547	49,65
864,841	49,53
865,135	51,36
865,428	50,9
865,722	50,86
866,016	51,9
866,31	52,93
866,603	52,29
866,897	51,94
867,19	54,59
867,484	55,19
867,777	55,05
868,07	55,78
868,364	56,06
868,657	54,42
868,95	54,81
869,243	55,62
869,536	55,05
869,829	55,57
870,122	56,08
870,415	57,01
870,708	57,04
871	55,52
871,293	54,42
871,586	54,8
871,878	54,45
872,171	54,67
872,463	54,52
872,756	54,3
873,048	55,17
873,341	54,23
873,633	53,71
873,925	53,97
874,217	53,52
874,509	53,2
874,801	54,39
875,093	52,86
875,385	52,5
875,677	51,25
875,969	50,17
