Data from palm_tumJ_v_Reflection_00002.txt Node
Date: Fri Feb 11 16:14:36 ART 2022
User: Nati
Spectrometer: USB2E3644
Trigger mode: 4
Integration Time (sec): 4,100000E-2
Scans to average: 10
Electric dark correction enabled: true
Nonlinearity correction enabled: false
Boxcar width: 10
XAxis mode: Wavelengths
Number of Pixels in Spectrum: 2048
>>>>>Begin Spectral Data<<<<<
178,315	239,53
178,696	325
179,076	274,19
179,457	161,54
179,838	138,6
180,218	120
180,599	116,22
180,979	52
181,36	118,18
181,74	112,12
182,121	106,45
182,501	121,14
182,881	97,66
183,262	109,63
183,642	121,33
184,022	130,65
184,402	132,38
184,783	127,44
185,163	127,08
185,543	137,18
185,923	143,76
186,303	141,28
186,683	141,96
187,063	137,52
187,443	130,86
187,823	125,74
188,203	122,99
188,583	120,6
188,963	117,26
189,343	113,68
189,723	114,65
190,102	118,67
190,482	119,79
190,862	120,27
191,242	118,69
191,621	117,96
192,001	119,86
192,38	120,97
192,76	124,34
193,14	125,06
193,519	125,17
193,898	124,34
194,278	124,12
194,657	124,3
195,037	124,94
195,416	126,41
195,795	128,2
196,175	129,37
196,554	131,65
196,933	135,24
197,312	138,54
197,692	137,75
198,071	134
198,45	130,6
198,829	130,6
199,208	129,39
199,587	127,52
199,966	124,61
200,345	122,49
200,724	123,06
201,103	126,61
201,482	128,59
201,86	129,55
202,239	129,02
202,618	127,58
202,997	125,24
203,375	123,77
203,754	124,47
204,133	124,39
204,511	125,59
204,89	125,81
205,269	124,49
205,647	125,47
206,026	125,6
206,404	126,36
206,782	125,77
207,161	126,53
207,539	125,64
207,918	123,93
208,296	121,82
208,674	117,13
209,052	113,16
209,431	110,99
209,809	108,12
210,187	107,14
210,565	108,92
210,943	111,08
211,321	110,92
211,699	109,04
212,077	109,53
212,455	107,87
212,833	105,95
213,211	104,85
213,589	101,17
213,967	100
214,345	99,21
214,722	98,83
215,1	101,57
215,478	108,11
215,855	111,73
216,233	112,95
216,611	117,99
216,988	122,03
217,366	123,59
217,743	129,7
218,121	134,5
218,498	131,93
218,876	130,91
219,253	133,48
219,631	138,11
220,008	132,68
220,385	128,98
220,762	130,1
221,14	134,15
221,517	136,21
221,894	137,09
222,271	141,8
222,648	147,34
223,025	147,92
223,402	143,64
223,78	137,75
224,157	135,77
224,533	131,55
224,91	129,42
225,287	127,76
225,664	119,71
226,041	112,39
226,418	111,31
226,795	111,07
227,171	112,13
227,548	112,09
227,925	111,59
228,301	112,58
228,678	113,33
229,055	114,52
229,431	115,72
229,808	120,85
230,184	121,67
230,561	123,3
230,937	121,56
231,313	119,36
231,69	122,22
232,066	126,12
232,442	129,99
232,819	129,36
233,195	135,09
233,571	149,8
233,947	161,16
234,323	167,4
234,699	171,6
235,075	170,09
235,451	170,64
235,827	179,94
236,203	187,82
236,579	188,28
236,955	184,84
237,331	197,5
237,707	218,93
238,083	241,43
238,459	269,98
238,834	335,91
239,21	424,11
239,586	565,24
239,961	863,03
240,337	1300
240,713	1832,08
241,088	1604,92
241,464	1780
241,839	-3016,13
242,215	-757,39
242,59	-399,51
242,965	-209,7
243,341	-130,99
243,716	-102,49
244,091	-76,53
244,467	-61,08
244,842	-53,4
245,217	-49,96
245,592	-50,76
245,967	-50,98
246,343	-52,01
246,718	-52,08
247,093	-51,42
247,468	-52,69
247,843	-51,49
248,218	-46,94
248,593	-40,58
248,967	-37,13
249,342	-36,6
249,717	-41,04
250,092	-45,02
250,467	-47,36
250,841	-55,1
251,216	-63,69
251,591	-71,15
251,965	-81,15
252,34	-95,05
252,714	-113,87
253,089	-137,48
253,463	-139,2
253,838	-136,66
254,212	-128,43
254,587	-125,28
254,961	-122,41
255,335	-109,52
255,71	-94,3
256,084	-73,56
256,458	-58,2
256,832	-47,26
257,206	-39,58
257,581	-34,72
257,955	-33,31
258,329	-32,88
258,703	-30,99
259,077	-30,9
259,451	-30,8
259,825	-31,49
260,199	-30,93
260,572	-29,36
260,946	-27,46
261,32	-25,79
261,694	-25,05
262,068	-23,85
262,441	-22,45
262,815	-21,79
263,189	-21,44
263,562	-21,04
263,936	-23,67
264,309	-28,36
264,683	-33,74
265,056	-37,43
265,43	-37,99
265,803	-37,63
266,176	-35,65
266,55	-34,31
266,923	-32,81
267,296	-31,27
267,67	-30,23
268,043	-28,75
268,416	-28,24
268,789	-26,35
269,162	-25,39
269,535	-22,76
269,908	-21,45
270,281	-20,92
270,654	-19,89
271,027	-19,31
271,4	-19,53
271,773	-19,61
272,146	-18,05
272,519	-16,64
272,891	-15,67
273,264	-14,8
273,637	-13,89
274,01	-13,93
274,382	-13,81
274,755	-13,43
275,127	-12,76
275,5	-12,01
275,872	-11,52
276,245	-10,68
276,617	-10,78
276,99	-10,53
277,362	-10,63
277,734	-10,4
278,107	-10,19
278,479	-10,06
278,851	-9,27
279,223	-8,61
279,596	-8,54
279,968	-8,37
280,34	-8,5
280,712	-8,17
281,084	-7,74
281,456	-7,37
281,828	-6,12
282,2	-4,41
282,572	-3,34
282,944	-2,55
283,315	-2,08
283,687	-1,61
284,059	-1,35
284,431	-1
284,802	-0,92
285,174	-0,68
285,546	-0,23
285,917	-0,29
286,289	-0,29
286,66	0,07
287,032	0,19
287,403	0,84
287,775	1,39
288,146	1,89
288,518	2,3
288,889	2,49
289,26	3,01
289,632	2,85
290,003	2,02
290,374	1,7
290,745	1,84
291,116	1,91
291,487	1,56
291,858	1,18
292,229	0,75
292,6	0,62
292,971	0,43
293,342	0,1
293,713	0,44
294,084	0,75
294,455	0,6
294,826	0,67
295,196	0,72
295,567	0,28
295,938	-0,01
296,308	-0,27
296,679	0,12
297,05	0,22
297,42	0,26
297,791	0,28
298,161	0,4
298,532	-0,08
298,902	-0,28
299,272	-0,35
299,643	-0,18
300,013	0,5
300,383	0,64
300,754	0,87
301,124	1,23
301,494	1,12
301,864	1,42
302,234	1,56
302,604	1,96
302,974	2,25
303,344	2,75
303,714	3,14
304,084	3,16
304,454	2,4
304,824	1,86
305,194	1,6
305,563	1,6
305,933	1,37
306,303	1,5
306,673	1,53
307,042	1,86
307,412	2
307,781	1,93
308,151	2,16
308,521	2,13
308,89	1,83
309,259	1,83
309,629	1,85
309,998	1,92
310,368	1,7
310,737	1,56
311,106	1,5
311,475	1,57
311,845	1,71
312,214	2,17
312,583	2,78
312,952	3,11
313,321	3,18
313,69	3,39
314,059	3,69
314,428	4,1
314,797	3,97
315,166	4,05
315,535	3,99
315,904	3,52
316,272	3,25
316,641	3,45
317,01	3,74
317,379	3,51
317,747	3,4
318,116	3,51
318,484	3,82
318,853	4,08
319,221	4,46
319,59	4,88
319,958	5,13
320,327	4,95
320,695	4,93
321,063	5,06
321,432	5,01
321,8	4,65
322,168	4,45
322,536	4,47
322,905	4,43
323,273	4,62
323,641	5,34
324,009	5,53
324,377	5,62
324,745	5,58
325,113	5,74
325,481	5,86
325,849	5,79
326,216	5,55
326,584	5,31
326,952	5,19
327,32	4,98
327,687	4,81
328,055	4,99
328,423	5,07
328,79	4,95
329,158	4,78
329,525	4,79
329,893	4,73
330,26	4,79
330,628	4,87
330,995	4,99
331,362	4,96
331,73	5,28
332,097	5,3
332,464	5,41
332,831	5,45
333,199	5,48
333,566	5,44
333,933	5,55
334,3	5,65
334,667	5,51
335,034	5,42
335,401	5,51
335,768	5,4
336,135	5,3
336,502	5,37
336,868	5,62
337,235	5,98
337,602	6,2
337,969	6,29
338,335	6,28
338,702	6,27
339,069	6,17
339,435	6
339,802	5,99
340,168	6,07
340,535	6,14
340,901	6,15
341,267	6,32
341,634	6,34
342	6,46
342,366	6,61
342,733	6,82
343,099	6,94
343,465	6,97
343,831	7,11
344,197	7,27
344,563	7,3
344,929	7,33
345,295	7,26
345,661	7,29
346,027	7,32
346,393	7,33
346,759	7,36
347,125	7,4
347,491	7,43
347,856	7,33
348,222	7,39
348,588	7,37
348,953	7,37
349,319	7,42
349,684	7,37
350,05	7,36
350,415	7,27
350,781	7,23
351,146	7,24
351,512	7,29
351,877	7,36
352,242	7,41
352,608	7,29
352,973	7,29
353,338	7,31
353,703	7,4
354,068	7,37
354,433	7,3
354,798	7,24
355,164	7,21
355,528	7,27
355,893	7,28
356,258	7,43
356,623	7,46
356,988	7,47
357,353	7,51
357,718	7,55
358,082	7,61
358,447	7,67
358,812	7,71
359,176	7,74
359,541	7,67
359,905	7,68
360,27	7,84
360,634	7,91
360,999	7,88
361,363	7,88
361,728	7,84
362,092	7,85
362,456	7,9
362,821	7,94
363,185	7,93
363,549	7,94
363,913	7,92
364,277	8,02
364,641	8,12
365,005	8,17
365,369	8,14
365,733	8,12
366,097	8,06
366,461	8,15
366,825	8,12
367,189	8,23
367,553	8,25
367,916	8,22
368,28	8,28
368,644	8,41
369,007	8,56
369,371	8,69
369,734	8,84
370,098	9,03
370,461	9,22
370,825	9,34
371,188	9,41
371,552	9,52
371,915	9,58
372,278	9,62
372,642	9,63
373,005	9,7
373,368	9,76
373,731	9,85
374,094	9,92
374,457	10,08
374,82	10,15
375,183	10,28
375,546	10,4
375,909	10,55
376,272	10,63
376,635	10,68
376,998	10,74
377,361	10,81
377,723	10,78
378,086	10,75
378,449	10,71
378,811	10,76
379,174	10,74
379,537	10,77
379,899	10,89
380,262	11,02
380,624	11,12
380,987	11,21
381,349	11,27
381,711	11,28
382,074	11,23
382,436	11,26
382,798	11,24
383,16	11,2
383,522	11,14
383,884	11,18
384,247	11,19
384,609	11,22
384,971	11,24
385,333	11,31
385,695	11,31
386,056	11,37
386,418	11,33
386,78	11,36
387,142	11,32
387,504	11,26
387,865	11,19
388,227	11,16
388,589	11,11
388,95	11,05
389,312	11,06
389,673	11,12
390,035	11,08
390,396	11,09
390,758	11,16
391,119	11,17
391,48	11,1
391,842	11,02
392,203	11,01
392,564	11
392,925	11
393,286	11,01
393,648	10,96
394,009	10,94
394,37	10,95
394,731	10,98
395,092	10,99
395,452	11,03
395,813	11,04
396,174	11,07
396,535	11,11
396,896	11,04
397,257	11,03
397,617	11,06
397,978	11,08
398,338	11,06
398,699	11,05
399,06	11,09
399,42	11,12
399,781	11,11
400,141	11,12
400,501	11,09
400,862	11,12
401,222	11,18
401,582	11,2
401,943	11,18
402,303	11,13
402,663	11,13
403,023	11,14
403,383	11,15
403,743	11,09
404,103	11,16
404,463	11,23
404,823	11,26
405,183	11,29
405,543	11,3
405,903	11,3
406,262	11,31
406,622	11,31
406,982	11,32
407,342	11,32
407,701	11,31
408,061	11,32
408,42	11,29
408,78	11,3
409,139	11,34
409,499	11,34
409,858	11,39
410,217	11,39
410,577	11,35
410,936	11,36
411,295	11,4
411,655	11,32
412,014	11,28
412,373	11,21
412,732	11,18
413,091	11,11
413,45	11,06
413,809	11,05
414,168	11,01
414,527	10,96
414,886	10,9
415,245	10,86
415,603	10,82
415,962	10,77
416,321	10,72
416,679	10,67
417,038	10,6
417,397	10,55
417,755	10,5
418,114	10,47
418,472	10,46
418,831	10,44
419,189	10,44
419,547	10,43
419,906	10,45
420,264	10,44
420,622	10,44
420,981	10,44
421,339	10,43
421,697	10,44
422,055	10,46
422,413	10,49
422,771	10,52
423,129	10,56
423,487	10,6
423,845	10,64
424,203	10,68
424,56	10,75
424,918	10,81
425,276	10,89
425,634	10,95
425,991	11
426,349	11,06
426,707	11,14
427,064	11,19
427,422	11,25
427,779	11,34
428,137	11,43
428,494	11,52
428,851	11,63
429,209	11,7
429,566	11,74
429,923	11,76
430,28	11,78
430,637	11,82
430,995	11,82
431,352	11,83
431,709	11,83
432,066	11,86
432,423	11,88
432,78	11,91
433,137	11,94
433,493	11,94
433,85	11,98
434,207	11,96
434,564	11,96
434,92	11,98
435,277	11,99
435,634	11,99
435,99	11,99
436,347	12
436,703	12,02
437,06	12,05
437,416	12,08
437,773	12,08
438,129	12,06
438,485	12,09
438,841	12,11
439,198	12,13
439,554	12,13
439,91	12,14
440,266	12,15
440,622	12,16
440,978	12,2
441,334	12,19
441,69	12,2
442,046	12,19
442,402	12,16
442,758	12,12
443,113	12,12
443,469	12,11
443,825	12,08
444,181	12,09
444,536	12,09
444,892	12,11
445,247	12,16
445,603	12,19
445,958	12,21
446,314	12,23
446,669	12,25
447,025	12,27
447,38	12,29
447,735	12,3
448,09	12,32
448,446	12,34
448,801	12,38
449,156	12,43
449,511	12,49
449,866	12,56
450,221	12,67
450,576	12,75
450,931	12,82
451,286	12,91
451,641	12,98
451,995	13,05
452,35	13,11
452,705	13,09
453,06	13,11
453,414	13,15
453,769	13,16
454,123	13,16
454,478	13,14
454,832	13,16
455,187	13,14
455,541	13,13
455,896	13,08
456,25	13,05
456,604	13,01
456,958	12,98
457,313	12,95
457,667	12,91
458,021	12,91
458,375	12,93
458,729	12,94
459,083	12,95
459,437	12,94
459,791	12,94
460,145	12,96
460,499	12,98
460,852	12,95
461,206	12,97
461,56	12,99
461,914	13,02
462,267	12,99
462,621	12,99
462,974	13,01
463,328	13,06
463,681	13,08
464,035	13,11
464,388	13,14
464,742	13,2
465,095	13,23
465,448	13,25
465,801	13,24
466,155	13,22
466,508	13,18
466,861	13,2
467,214	13,2
467,567	13,21
467,92	13,21
468,273	13,26
468,626	13,26
468,979	13,23
469,332	13,23
469,684	13,25
470,037	13,28
470,39	13,31
470,743	13,3
471,095	13,32
471,448	13,35
471,8	13,35
472,153	13,35
472,505	13,36
472,858	13,37
473,21	13,37
473,562	13,4
473,915	13,43
474,267	13,39
474,619	13,38
474,971	13,35
475,324	13,32
475,676	13,28
476,028	13,27
476,38	13,27
476,732	13,27
477,084	13,28
477,436	13,28
477,787	13,24
478,139	13,23
478,491	13,23
478,843	13,2
479,195	13,2
479,546	13,15
479,898	13,06
480,249	12,96
480,601	12,9
480,952	12,84
481,304	12,78
481,655	12,76
482,007	12,74
482,358	12,73
482,709	12,71
483,061	12,69
483,412	12,68
483,763	12,66
484,114	12,63
484,465	12,61
484,816	12,59
485,167	12,58
485,518	12,57
485,869	12,56
486,22	12,55
486,571	12,56
486,922	12,55
487,272	12,57
487,623	12,58
487,974	12,59
488,324	12,6
488,675	12,64
489,025	12,66
489,376	12,67
489,726	12,68
490,077	12,71
490,427	12,74
490,778	12,77
491,128	12,81
491,478	12,86
491,828	12,9
492,179	12,95
492,529	12,98
492,879	13,02
493,229	13,07
493,579	13,1
493,929	13,13
494,279	13,15
494,629	13,2
494,979	13,24
495,328	13,32
495,678	13,4
496,028	13,49
496,378	13,58
496,727	13,63
497,077	13,71
497,426	13,76
497,776	13,8
498,125	13,85
498,475	13,89
498,824	13,92
499,174	13,96
499,523	13,99
499,872	14,04
500,221	14,08
500,571	14,11
500,92	14,17
501,269	14,21
501,618	14,27
501,967	14,32
502,316	14,39
502,665	14,44
503,014	14,52
503,363	14,55
503,711	14,61
504,06	14,68
504,409	14,72
504,758	14,76
505,106	14,82
505,455	14,85
505,803	14,9
506,152	14,95
506,5	15
506,849	15,05
507,197	15,11
507,546	15,16
507,894	15,23
508,242	15,28
508,59	15,34
508,939	15,39
509,287	15,46
509,635	15,53
509,983	15,58
510,331	15,64
510,679	15,73
511,027	15,81
511,375	15,87
511,723	15,96
512,07	16,04
512,418	16,13
512,766	16,23
513,114	16,3
513,461	16,4
513,809	16,51
514,156	16,63
514,504	16,74
514,851	16,82
515,199	16,91
515,546	17,03
515,893	17,14
516,241	17,27
516,588	17,36
516,935	17,46
517,282	17,58
517,63	17,67
517,977	17,76
518,324	17,83
518,671	17,94
519,018	18,04
519,365	18,12
519,711	18,25
520,058	18,33
520,405	18,44
520,752	18,55
521,099	18,65
521,445	18,76
521,792	18,87
522,138	19,05
522,485	19,19
522,832	19,35
523,178	19,49
523,524	19,6
523,871	19,71
524,217	19,81
524,563	19,9
524,91	19,98
525,256	20,06
525,602	20,12
525,948	20,18
526,294	20,21
526,64	20,26
526,986	20,29
527,332	20,34
527,678	20,37
528,024	20,42
528,37	20,47
528,716	20,51
529,061	20,58
529,407	20,63
529,753	20,69
530,098	20,75
530,444	20,79
530,789	20,84
531,135	20,89
531,48	20,95
531,826	21,01
532,171	21,08
532,516	21,15
532,862	21,26
533,207	21,33
533,552	21,42
533,897	21,48
534,242	21,56
534,587	21,62
534,932	21,7
535,277	21,73
535,622	21,77
535,967	21,82
536,312	21,84
536,657	21,87
537,001	21,93
537,346	21,97
537,691	22,02
538,035	22,03
538,38	22,04
538,724	22,05
539,069	22,06
539,413	22,09
539,758	22,12
540,102	22,16
540,446	22,19
540,791	22,21
541,135	22,25
541,479	22,26
541,823	22,28
542,167	22,27
542,512	22,3
542,856	22,28
543,2	22,28
543,543	22,28
543,887	22,31
544,231	22,33
544,575	22,36
544,919	22,41
545,262	22,48
545,606	22,53
545,95	22,6
546,293	22,64
546,637	22,65
546,98	22,71
547,324	22,74
547,667	22,81
548,011	22,82
548,354	22,84
548,697	22,83
549,04	22,83
549,384	22,87
549,727	22,85
550,07	22,89
550,413	22,9
550,756	22,95
551,099	22,97
551,442	22,99
551,785	22,97
552,128	22,97
552,47	22,95
552,813	22,92
553,156	22,88
553,499	22,9
553,841	22,89
554,184	22,84
554,526	22,77
554,869	22,73
555,211	22,71
555,554	22,67
555,896	22,65
556,238	22,63
556,581	22,59
556,923	22,57
557,265	22,52
557,607	22,49
557,949	22,45
558,291	22,37
558,633	22,34
558,975	22,29
559,317	22,23
559,659	22,2
560,001	22,15
560,343	22,1
560,685	22,02
561,026	21,98
561,368	21,94
561,71	21,89
562,051	21,82
562,393	21,81
562,734	21,77
563,076	21,73
563,417	21,64
563,759	21,58
564,1	21,51
564,441	21,47
564,782	21,41
565,124	21,35
565,465	21,28
565,806	21,2
566,147	21,17
566,488	21,11
566,829	21,02
567,17	20,93
567,511	20,85
567,851	20,77
568,192	20,73
568,533	20,66
568,874	20,61
569,214	20,57
569,555	20,49
569,895	20,39
570,236	20,32
570,576	20,23
570,917	20,15
571,257	20,07
571,598	19,99
571,938	19,94
572,278	19,86
572,618	19,79
572,959	19,72
573,299	19,68
573,639	19,58
573,979	19,53
574,319	19,5
574,659	19,45
574,999	19,4
575,339	19,31
575,678	19,23
576,018	19,17
576,358	19,05
576,698	18,96
577,037	18,94
577,377	18,89
577,716	18,85
578,056	18,81
578,395	18,75
578,735	18,68
579,074	18,56
579,413	18,48
579,753	18,42
580,092	18,38
580,431	18,31
580,77	18,25
581,109	18,22
581,448	18,15
581,787	18,11
582,126	18,05
582,465	18
582,804	18
583,143	17,97
583,482	17,96
583,82	17,91
584,159	17,86
584,498	17,78
584,836	17,73
585,175	17,67
585,514	17,66
585,852	17,64
586,19	17,64
586,529	17,63
586,867	17,68
587,205	17,63
587,544	17,61
587,882	17,6
588,22	17,58
588,558	17,56
588,896	17,55
589,234	17,55
589,572	17,51
589,91	17,48
590,248	17,44
590,586	17,4
590,924	17,43
591,262	17,42
591,599	17,44
591,937	17,43
592,275	17,43
592,612	17,42
592,95	17,39
593,287	17,36
593,625	17,36
593,962	17,3
594,299	17,34
594,637	17,3
594,974	17,27
595,311	17,24
595,648	17,19
595,985	17,17
596,322	17,17
596,659	17,2
596,996	17,16
597,333	17,15
597,67	17,17
598,007	17,1
598,344	17,08
598,681	17,08
599,017	17,06
599,354	17,08
599,691	17,07
600,027	17,03
600,364	17,03
600,7	17,03
601,037	17,01
601,373	16,95
601,71	16,94
602,046	16,95
602,382	16,93
602,718	16,92
603,054	16,92
603,391	16,92
603,727	16,89
604,063	16,9
604,399	16,89
604,735	16,84
605,071	16,85
605,406	16,84
605,742	16,76
606,078	16,73
606,414	16,67
606,749	16,62
607,085	16,58
607,421	16,54
607,756	16,49
608,092	16,44
608,427	16,39
608,762	16,35
609,098	16,3
609,433	16,26
609,768	16,24
610,104	16,15
610,439	16,1
610,774	16,03
611,109	15,96
611,444	15,89
611,779	15,83
612,114	15,77
612,449	15,7
612,784	15,7
613,118	15,65
613,453	15,59
613,788	15,56
614,123	15,55
614,457	15,51
614,792	15,43
615,126	15,38
615,461	15,28
615,795	15,22
616,13	15,15
616,464	15,12
616,798	15,08
617,132	15,07
617,467	15,04
617,801	15
618,135	14,99
618,469	15,01
618,803	15,03
619,137	15,02
619,471	15,05
619,805	15,03
620,139	14,98
620,472	14,96
620,806	14,97
621,14	14,92
621,473	14,9
621,807	14,9
622,141	14,86
622,474	14,88
622,808	14,89
623,141	14,89
623,474	14,88
623,808	14,89
624,141	14,9
624,474	14,88
624,807	14,88
625,141	14,82
625,474	14,73
625,807	14,71
626,14	14,69
626,473	14,66
626,806	14,64
627,138	14,65
627,471	14,63
627,804	14,55
628,137	14,54
628,469	14,52
628,802	14,51
629,135	14,53
629,467	14,58
629,8	14,58
630,132	14,55
630,465	14,55
630,797	14,5
631,129	14,47
631,461	14,49
631,794	14,55
632,126	14,56
632,458	14,59
632,79	14,58
633,122	14,56
633,454	14,53
633,786	14,5
634,118	14,49
634,45	14,48
634,781	14,48
635,113	14,47
635,445	14,46
635,777	14,45
636,108	14,44
636,44	14,4
636,771	14,37
637,103	14,36
637,434	14,34
637,765	14,34
638,097	14,3
638,428	14,23
638,759	14,14
639,09	14,13
639,422	14,1
639,753	14,07
640,084	14,01
640,415	14
640,746	14,03
641,077	14,01
641,407	13,99
641,738	13,96
642,069	13,95
642,4	13,92
642,73	13,9
643,061	13,84
643,392	13,8
643,722	13,79
644,053	13,79
644,383	13,72
644,713	13,7
645,044	13,65
645,374	13,6
645,704	13,57
646,034	13,5
646,365	13,48
646,695	13,45
647,025	13,44
647,355	13,37
647,685	13,31
648,015	13,25
648,344	13,21
648,674	13,24
649,004	13,26
649,334	13,25
649,663	13,23
649,993	13,24
650,323	13,22
650,652	13,14
650,982	13,06
651,311	13,06
651,64	13,03
651,97	13,01
652,299	12,95
652,628	12,87
652,958	12,84
653,287	12,84
653,616	12,79
653,945	12,76
654,274	12,76
654,603	12,73
654,932	12,68
655,261	12,64
655,589	12,64
655,918	12,58
656,247	12,53
656,576	12,47
656,904	12,34
657,233	12,33
657,561	12,31
657,89	12,3
658,218	12,22
658,547	12,15
658,875	12,14
659,203	12,16
659,532	12,15
659,86	12,11
660,188	12,03
660,516	12,02
660,844	11,98
661,172	11,93
661,5	11,84
661,828	11,8
662,156	11,79
662,484	11,65
662,811	11,59
663,139	11,49
663,467	11,38
663,794	11,37
664,122	11,28
664,45	11,23
664,777	11,17
665,104	11,18
665,432	11,11
665,759	11,04
666,086	11
666,414	11
666,741	11,04
667,068	11,01
667,395	10,96
667,722	10,9
668,049	10,88
668,376	10,91
668,703	10,9
669,03	10,79
669,357	10,8
669,683	10,75
670,01	10,75
670,337	10,78
670,663	10,79
670,99	10,76
671,317	10,71
671,643	10,69
671,969	10,64
672,296	10,68
672,622	10,65
672,948	10,66
673,275	10,68
673,601	10,6
673,927	10,59
674,253	10,61
674,579	10,63
674,905	10,66
675,231	10,67
675,557	10,71
675,883	10,75
676,209	10,7
676,534	10,64
676,86	10,68
677,186	10,7
677,511	10,69
677,837	10,7
678,162	10,71
678,488	10,69
678,813	10,71
679,139	10,73
679,464	10,81
679,789	10,82
680,114	10,82
680,44	10,87
680,765	10,89
681,09	10,88
681,415	10,94
681,74	10,96
682,065	10,97
682,39	10,96
682,714	11,01
683,039	11,1
683,364	11,22
683,689	11,26
684,013	11,26
684,338	11,34
684,662	11,41
684,987	11,51
685,311	11,67
685,636	11,74
685,96	11,8
686,284	11,86
686,608	11,93
686,933	11,99
687,257	12,1
687,581	12,19
687,905	12,35
688,229	12,45
688,553	12,54
688,877	12,64
689,201	12,78
689,524	12,93
689,848	13,09
690,172	13,24
690,496	13,41
690,819	13,71
691,143	13,83
691,466	13,96
691,79	14,14
692,113	14,26
692,436	14,43
692,76	14,67
693,083	14,84
693,406	15,13
693,729	15,33
694,053	15,55
694,376	15,78
694,699	16,03
695,022	16,29
695,344	16,57
695,667	16,9
695,99	17,2
696,313	17,44
696,636	17,67
696,958	17,87
697,281	18,11
697,604	18,26
697,926	18,53
698,249	18,75
698,571	18,96
698,893	19,19
699,216	19,41
699,538	19,58
699,86	19,85
700,182	20,01
700,504	20,25
700,827	20,52
701,149	20,81
701,471	21,02
701,793	21,29
702,114	21,59
702,436	21,86
702,758	22,16
703,08	22,53
703,401	22,9
703,723	23,26
704,045	23,59
704,366	23,91
704,688	24,17
705,009	24,47
705,331	24,78
705,652	25,09
705,973	25,43
706,294	25,82
706,616	26,15
706,937	26,44
707,258	26,75
707,579	27,06
707,9	27,36
708,221	27,62
708,542	27,91
708,863	28,26
709,183	28,6
709,504	28,95
709,825	29,33
710,145	29,56
710,466	29,81
710,787	30,21
711,107	30,61
711,427	30,99
711,748	31,39
712,068	31,67
712,388	31,95
712,709	32,23
713,029	32,54
713,349	32,86
713,669	33,17
713,989	33,41
714,309	33,7
714,629	33,94
714,949	34,39
715,269	34,74
715,589	35,14
715,908	35,63
716,228	36,03
716,548	36,35
716,867	36,71
717,187	37,1
717,506	37,32
717,826	37,6
718,145	37,9
718,465	38,15
718,784	38,58
719,103	39,08
719,422	39,6
719,741	39,94
720,061	40,26
720,38	40,75
720,699	41,22
721,018	41,63
721,336	42,1
721,655	42,42
721,974	42,98
722,293	43,33
722,612	43,67
722,93	44,02
723,249	44,5
723,567	44,87
723,886	45,36
724,204	45,76
724,523	46,2
724,841	46,7
725,159	47,3
725,477	47,83
725,796	47,99
726,114	48,38
726,432	48,81
726,75	49,19
727,068	49,55
727,386	49,93
727,704	50,33
728,022	50,9
728,339	51,3
728,657	51,58
728,975	51,79
729,292	52,01
729,61	52,34
729,928	52,51
730,245	53,03
730,562	53,32
730,88	53,64
731,197	54,01
731,514	54,28
731,832	54,58
732,149	54,63
732,466	55,06
732,783	55,29
733,1	55,63
733,417	56,06
733,734	56,51
734,051	56,92
734,368	57,28
734,684	57,54
735,001	57,85
735,318	58,14
735,634	58,56
735,951	59,04
736,268	59,28
736,584	59,78
736,9	60,01
737,217	60,38
737,533	60,75
737,849	61
738,166	61,16
738,482	61,36
738,798	61,8
739,114	62,09
739,43	62,25
739,746	62,34
740,062	62,63
740,378	62,68
740,693	62,8
741,009	62,9
741,325	62,93
741,641	63,21
741,956	63,3
742,272	63,44
742,587	63,47
742,903	63,78
743,218	63,89
743,533	64,24
743,849	64,35
744,164	64,51
744,479	64,63
744,794	65,15
745,109	65,34
745,424	65,6
745,739	65,78
746,054	65,99
746,369	66,18
746,684	66,05
746,999	66,05
747,313	66,16
747,628	66,35
747,943	66,58
748,257	66,58
748,572	66,69
748,886	66,87
749,201	67,16
749,515	67,26
749,829	67,41
750,144	67,23
750,458	67,37
750,772	67,42
751,086	67,56
751,4	67,31
751,714	67,49
752,028	67,42
752,342	67,39
752,656	67,59
752,97	67,71
753,284	67,86
753,597	67,97
753,911	68,03
754,225	68,09
754,538	68,1
754,852	68,32
755,165	68,35
755,478	68,34
755,792	68,27
756,105	68,45
756,418	68,5
756,731	68,64
757,045	68,52
757,358	68,54
757,671	68,51
757,984	68,57
758,297	68,63
758,609	68,78
758,922	68,71
759,235	68,92
759,548	69,01
759,86	68,94
760,173	68,9
760,486	68,81
760,798	68,48
761,111	68,45
761,423	68,15
761,735	68,11
762,048	68,41
762,36	68,6
762,672	68,58
762,984	68,55
763,296	68,56
763,608	68,67
763,92	68,92
764,232	68,99
764,544	69,02
764,856	68,9
765,168	68,93
765,48	69,12
765,791	68,93
766,103	68,97
766,414	69,1
766,726	69,38
767,037	69,67
767,349	70,05
767,66	70,42
767,972	70,93
768,283	71,33
768,594	71,18
768,905	71,15
769,216	71,35
769,527	71,54
769,838	71,63
770,149	71,78
770,46	71,58
770,771	71,73
771,082	72,16
771,393	72,27
771,703	72,19
772,014	72,39
772,324	72,64
772,635	72,82
772,945	72,99
773,256	73,12
773,566	73,28
773,877	73,47
774,187	73,16
774,497	73,15
774,807	73,21
775,117	73,35
775,427	73,26
775,737	73,49
776,047	73,62
776,357	73,86
776,667	74,12
776,977	74,48
777,287	74,77
777,596	74,71
777,906	74,91
778,216	75,08
778,525	75,33
778,835	75,25
779,144	75,2
779,453	75
779,763	74,78
780,072	74,81
780,381	74,89
780,69	75,11
781	75,08
781,309	75,16
781,618	75,52
781,927	75,92
782,235	75,8
782,544	75,97
782,853	76,03
783,162	75,82
783,471	75,54
783,779	75,31
784,088	74,95
784,396	74,56
784,705	74,65
785,013	74,29
785,322	74,32
785,63	74,22
785,938	74,58
786,246	74,66
786,554	74,42
786,863	74,61
787,171	74,69
787,479	74,63
787,787	74,56
788,094	74,4
788,402	74,32
788,71	74,2
789,018	74,15
789,326	74,17
789,633	74,45
789,941	74,72
790,248	74,73
790,556	74,95
790,863	75,69
791,171	75,66
791,478	75,49
791,785	75,35
792,092	75,34
792,399	75,31
792,707	75,44
793,014	75,53
793,321	75,07
793,628	74,75
793,934	75,03
794,241	75,02
794,548	74,99
794,855	74,81
795,161	74,96
795,468	75,06
795,775	74,95
796,081	74,62
796,388	74,49
796,694	74,35
797	74,55
797,307	74,13
797,613	73,92
797,919	74,18
798,225	74,59
798,531	74,82
798,837	74,66
799,143	74,57
799,449	74,78
799,755	75,03
800,061	75,53
800,367	75,39
800,672	75,12
800,978	75,42
801,284	75,61
801,589	75,95
801,895	75,95
802,2	75,93
802,506	76,34
802,811	76,62
803,116	77
803,421	76,83
803,727	77
804,032	77,34
804,337	77,7
804,642	77,49
804,947	77,12
805,252	77,55
805,556	77,61
805,861	77,23
806,166	77,18
806,471	76,61
806,775	76,69
807,08	76,76
807,384	76,5
807,689	76,43
807,993	76,08
808,298	76,08
808,602	76,29
808,906	76,07
809,211	76,14
809,515	75,92
809,819	76,03
810,123	75,95
810,427	75,55
810,731	75,4
811,035	75,72
811,338	76,33
811,642	76,23
811,946	76,29
812,25	76,52
812,553	76,72
812,857	77,12
813,16	77,17
813,464	77,43
813,767	77,44
814,07	77,71
814,374	77,79
814,677	77,82
814,98	78,08
815,283	78,07
815,586	78,13
815,889	78,48
816,192	78,82
816,495	78,81
816,798	79,11
817,101	79,11
817,404	78,78
817,706	78,44
818,009	77,89
818,312	77,36
818,614	76,52
818,917	75,3
819,219	74,36
819,521	73,12
819,824	72,49
820,126	71,83
820,428	70,88
820,73	70,5
821,032	70,03
821,334	69,65
821,636	69,5
821,938	69,34
822,24	69,19
822,542	69,11
822,844	69,14
823,145	69,18
823,447	69,1
823,749	69,12
824,05	69,09
824,352	69,11
824,653	69,14
824,955	69,08
825,256	69,26
825,557	69,23
825,858	69,45
826,16	69,42
826,461	69,64
826,762	70,2
827,063	70,46
827,364	70,78
827,665	71,2
827,965	71,59
828,266	71,81
828,567	72,11
828,868	72,27
829,168	72,33
829,469	72,34
829,769	72,37
830,07	72,45
830,37	72,63
830,67	72,75
830,971	72,94
831,271	73,42
831,571	73,73
831,871	74,01
832,171	73,69
832,471	74,03
832,771	73,89
833,071	73,91
833,371	73,98
833,671	74,52
833,971	74,49
834,27	74,57
834,57	74,46
834,869	74,35
835,169	74,21
835,468	74,24
835,768	74,18
836,067	74,38
836,367	74,4
836,666	74,48
836,965	74,83
837,264	75,08
837,563	75,5
837,862	75,86
838,161	76,43
838,46	77,41
838,759	77,72
839,058	78,38
839,356	78,42
839,655	77,96
839,954	77,36
840,252	77,52
840,551	77,71
840,849	78,2
841,148	78,75
841,446	78,9
841,744	78,58
842,043	78,7
842,341	78,75
842,639	79,07
842,937	79,11
843,235	79,21
843,533	79,46
843,831	80,01
844,129	79,67
844,427	80,13
844,724	80,46
845,022	80,76
845,32	81,05
845,617	81,21
845,915	82,44
846,212	82,5
846,51	82,86
846,807	83,07
847,104	82,6
847,402	82,08
847,699	82,4
847,996	83,2
848,293	83,55
848,59	83,2
848,887	82,75
849,184	82,99
849,481	82,47
849,778	82,45
850,074	82,51
850,371	82,78
850,668	82,71
850,964	82,92
851,261	83,13
851,557	83,41
851,854	83,91
852,15	83,35
852,446	84,35
852,743	85
853,039	84,99
853,335	86,68
853,631	86,66
853,927	86,67
854,223	87,02
854,519	87,49
854,815	88,28
855,111	89,24
855,406	89
855,702	89,01
855,998	89,43
856,293	89,43
856,589	89,97
856,884	89,56
857,18	89,42
857,475	89,22
857,77	87,89
858,066	86,97
858,361	87,51
858,656	87,08
858,951	86,5
859,246	85,97
859,541	85,57
859,836	85,69
860,131	86,32
860,426	87,32
860,72	87,1
861,015	86,86
861,31	86,51
861,604	87,12
861,899	87,57
862,193	87,49
862,487	87,02
862,782	87,22
863,076	88,46
863,37	88,31
863,664	87,75
863,959	88,67
864,253	89,9
864,547	90,52
864,841	90,95
865,135	91,06
865,428	90,73
865,722	89,78
866,016	90,95
866,31	90,54
866,603	89,05
866,897	89,05
867,19	89,14
867,484	87,96
867,777	86,76
868,07	86,09
868,364	85,73
868,657	85,66
868,95	85,68
869,243	85,43
869,536	85,28
869,829	86,33
870,122	85,87
870,415	84,41
870,708	83,91
871	84,17
871,293	84,56
871,586	85,57
871,878	85,74
872,171	85,01
872,463	85,08
872,756	84,41
873,048	83,64
873,341	83,38
873,633	84,3
873,925	85,16
874,217	85,62
874,509	85,21
874,801	85,35
875,093	84,24
875,385	83,08
875,677	83,01
875,969	81,99
