Data from palm_camino1_d_45_90_Reflection_00003.txt Node
Date: Fri Feb 11 15:19:12 ART 2022
User: Nati
Spectrometer: USB2E3644
Trigger mode: 4
Integration Time (sec): 3,520000E-1
Scans to average: 10
Electric dark correction enabled: true
Nonlinearity correction enabled: false
Boxcar width: 10
XAxis mode: Wavelengths
Number of Pixels in Spectrum: 2048
>>>>>Begin Spectral Data<<<<<
178,315	-212,21
178,696	34,55
179,076	64,89
179,457	87,12
179,838	97,58
180,218	159,24
180,599	136,21
180,979	400
181,36	69,76
181,74	105,31
182,121	128,38
182,501	116,41
182,881	124,68
183,262	74,43
183,642	82,04
184,022	84,17
184,402	112,09
184,783	139,03
185,163	144,19
185,543	129,58
185,923	114,45
186,303	101,54
186,683	70,38
187,063	65,93
187,443	61,91
187,823	67,23
188,203	51,76
188,583	58,21
188,963	58,32
189,343	53,56
189,723	56,11
190,102	53,05
190,482	49,51
190,862	54,06
191,242	56,85
191,621	59,57
192,001	61,25
192,38	56,33
192,76	56,29
193,14	49,83
193,519	49,31
193,898	52,13
194,278	52,49
194,657	54,16
195,037	55,29
195,416	52,46
195,795	47,65
196,175	52,95
196,554	52,38
196,933	43,35
197,312	41,55
197,692	34,72
198,071	37,17
198,45	36,83
198,829	32,47
199,208	30,79
199,587	21,42
199,966	12,39
200,345	2,82
200,724	-1,88
201,103	-6,71
201,482	-10,15
201,86	-19,94
202,239	-26,03
202,618	-25,69
202,997	-22,9
203,375	-24,24
203,754	-34,57
204,133	-67,22
204,511	-69,1
204,89	-60,71
205,269	-77,92
205,647	-93,87
206,026	-120,21
206,404	-126,33
206,782	-173,95
207,161	-192,54
207,539	-310,08
207,918	-447,34
208,296	-569,08
208,674	-555,06
209,052	-600,75
209,431	-657,03
209,809	-326,38
210,187	-434,47
210,565	-604,43
210,943	-1958
211,321	-1282,43
211,699	-763,11
212,077	-331,74
212,455	-222,59
212,833	-193,67
213,211	-184,25
213,589	-147,57
213,967	-127,68
214,345	-153,54
214,722	-210,23
215,1	-382,37
215,478	-340,8
215,855	-344,48
216,233	-298,62
216,611	-266,58
216,988	-253,23
217,366	-237,83
217,743	-251,95
218,121	-204,47
218,498	-247,63
218,876	-336,58
219,253	-349,26
219,631	-385,97
220,008	-385,75
220,385	-389,95
220,762	-414,57
221,14	-388,45
221,517	-348,28
221,894	-311,38
222,271	-254,77
222,648	-182,19
223,025	-145,36
223,402	-153,76
223,78	-119,35
224,157	-108,12
224,533	-95,05
224,91	-71,39
225,287	-54,33
225,664	-49,12
226,041	-39,43
226,418	-23,26
226,795	-10,5
227,171	-1,48
227,548	4,56
227,925	10,68
228,301	11,56
228,678	12,29
229,055	10,92
229,431	6,27
229,808	-2,76
230,184	-12,82
230,561	-18,35
230,937	-16,34
231,313	-9,5
231,69	-12,33
232,066	-13,63
232,442	-15,3
232,819	-31,93
233,195	-49,74
233,571	-61,99
233,947	-79,21
234,323	-100,54
234,699	-103,57
235,075	-104,65
235,451	-90,14
235,827	-86,67
236,203	-80,7
236,579	-73,84
236,955	-63,01
237,331	-50,57
237,707	-36,99
238,083	-21,52
238,459	-19,6
238,834	-19,01
239,21	-17,14
239,586	-14,2
239,961	-10,74
240,337	-10,93
240,713	-11,19
241,088	-10,23
241,464	-9,78
241,839	-7,12
242,215	-2,83
242,59	1,11
242,965	1,49
243,341	2,49
243,716	3,07
244,091	4,63
244,467	5,94
244,842	6,09
245,217	6,63
245,592	6,61
245,967	5,84
246,343	7,14
246,718	7,76
247,093	7,99
247,468	8,06
247,843	8,12
248,218	8,55
248,593	9,45
248,967	9,95
249,342	11,36
249,717	11,79
250,092	10,71
250,467	10,16
250,841	10,16
251,216	10,05
251,591	9,73
251,965	9,54
252,34	9,45
252,714	9,85
253,089	10,03
253,463	10
253,838	10,52
254,212	9,65
254,587	9,08
254,961	8,81
255,335	9,26
255,71	9,2
256,084	9,43
256,458	8,88
256,832	8,62
257,206	8,52
257,581	8,81
257,955	9,23
258,329	9,33
258,703	9,22
259,077	9,34
259,451	9,95
259,825	9,95
260,199	9,66
260,572	9,38
260,946	9,15
261,32	9,21
261,694	9,51
262,068	9,5
262,441	10,26
262,815	10,47
263,189	10,63
263,562	11,22
263,936	11,91
264,309	12,12
264,683	12,35
265,056	12,3
265,43	11,82
265,803	11,95
266,176	11,54
266,55	11,26
266,923	10,55
267,296	9,88
267,67	9,58
268,043	10,39
268,416	10,57
268,789	10,19
269,162	9,86
269,535	9,61
269,908	9,95
270,281	9,43
270,654	9,36
271,027	9,49
271,4	8,92
271,773	8,21
272,146	8,46
272,519	8,79
272,891	8,61
273,264	8,2
273,637	8,17
274,01	8,48
274,382	8,52
274,755	8,8
275,127	9,04
275,5	8,93
275,872	8,33
276,245	8,66
276,617	8,92
276,99	8,48
277,362	8,54
277,734	8,73
278,107	9,27
278,479	9,82
278,851	9,63
279,223	9,89
279,596	10,51
279,968	10,82
280,34	10,79
280,712	10,56
281,084	10,67
281,456	10,17
281,828	9,83
282,2	9,83
282,572	9,95
282,944	10,06
283,315	10,4
283,687	10,71
284,059	10,58
284,431	10,8
284,802	11,07
285,174	10,89
285,546	10,67
285,917	10,68
286,289	10,45
286,66	10,29
287,032	10,11
287,403	9,72
287,775	9,54
288,146	9,53
288,518	9,71
288,889	9,67
289,26	9,86
289,632	10
290,003	10,1
290,374	10,2
290,745	10,02
291,116	9,95
291,487	9,64
291,858	9,8
292,229	9,8
292,6	9,88
292,971	9,97
293,342	9,9
293,713	9,79
294,084	9,72
294,455	9,82
294,826	10,01
295,196	10,39
295,567	10,38
295,938	10,68
296,308	10,59
296,679	10,62
297,05	10,5
297,42	10,37
297,791	10,41
298,161	10,27
298,532	10,45
298,902	10,47
299,272	10,34
299,643	10,11
300,013	10,08
300,383	10,07
300,754	10
301,124	9,86
301,494	9,55
301,864	9,56
302,234	9,42
302,604	9,34
302,974	8,95
303,344	8,86
303,714	8,64
304,084	8,57
304,454	8,51
304,824	8,61
305,194	8,72
305,563	8,69
305,933	8,77
306,303	8,69
306,673	8,9
307,042	9,26
307,412	9,25
307,781	9,27
308,151	9,15
308,521	9,24
308,89	9,46
309,259	9,76
309,629	9,73
309,998	9,67
310,368	9,85
310,737	10,06
311,106	10,26
311,475	10,26
311,845	10,57
312,214	10,7
312,583	10,7
312,952	10,74
313,321	10,84
313,69	10,75
314,059	10,56
314,428	10,24
314,797	10,17
315,166	10,49
315,535	10,41
315,904	10,5
316,272	10,3
316,641	10,3
317,01	10,14
317,379	10,06
317,747	10,14
318,116	9,85
318,484	9,65
318,853	9,52
319,221	9,45
319,59	9,15
319,958	9,22
320,327	9,29
320,695	9,44
321,063	9,5
321,432	9,78
321,8	9,99
322,168	10,26
322,536	10,36
322,905	10,04
323,273	9,95
323,641	9,88
324,009	10,05
324,377	10,21
324,745	10,41
325,113	10,49
325,481	10,54
325,849	10,62
326,216	10,57
326,584	10,31
326,952	10,32
327,32	10,43
327,687	10,5
328,055	10,47
328,423	10,31
328,79	10,27
329,158	10,07
329,525	9,99
329,893	9,99
330,26	9,96
330,628	9,98
330,995	10,05
331,362	10,15
331,73	10,19
332,097	9,99
332,464	9,79
332,831	9,62
333,199	9,48
333,566	9,38
333,933	9,28
334,3	9,36
334,667	9,27
335,034	9,36
335,401	9,3
335,768	9,33
336,135	9,35
336,502	9,27
336,868	9,29
337,235	9,24
337,602	9,15
337,969	9,02
338,335	9,01
338,702	8,96
339,069	8,83
339,435	8,79
339,802	8,74
340,168	8,79
340,535	8,85
340,901	8,89
341,267	8,88
341,634	9,02
342	9,01
342,366	9,05
342,733	8,9
343,099	8,78
343,465	8,66
343,831	8,66
344,197	8,74
344,563	8,69
344,929	8,77
345,295	8,71
345,661	8,72
346,027	8,83
346,393	8,85
346,759	8,9
347,125	8,91
347,491	8,99
347,856	9,02
348,222	9,04
348,588	9,05
348,953	9,09
349,319	9,02
349,684	9,02
350,05	9,03
350,415	9,01
350,781	9,03
351,146	9,06
351,512	9,09
351,877	9,06
352,242	9,1
352,608	9,07
352,973	9,11
353,338	9,04
353,703	8,92
354,068	8,94
354,433	8,95
354,798	8,92
355,164	8,89
355,528	8,84
355,893	8,84
356,258	8,79
356,623	8,81
356,988	8,87
357,353	8,87
357,718	8,88
358,082	8,9
358,447	8,87
358,812	8,92
359,176	8,93
359,541	8,94
359,905	8,97
360,27	8,98
360,634	8,93
360,999	8,97
361,363	9
361,728	9,01
362,092	8,99
362,456	8,94
362,821	8,85
363,185	8,86
363,549	8,82
363,913	8,84
364,277	8,81
364,641	8,76
365,005	8,73
365,369	8,67
365,733	8,62
366,097	8,7
366,461	8,66
366,825	8,58
367,189	8,6
367,553	8,58
367,916	8,6
368,28	8,66
368,644	8,66
369,007	8,64
369,371	8,61
369,734	8,59
370,098	8,61
370,461	8,63
370,825	8,66
371,188	8,74
371,552	8,76
371,915	8,75
372,278	8,77
372,642	8,86
373,005	8,92
373,368	8,92
373,731	8,89
374,094	8,9
374,457	8,93
374,82	8,91
375,183	8,94
375,546	8,88
375,909	8,84
376,272	8,87
376,635	8,88
376,998	8,87
377,361	8,88
377,723	8,88
378,086	8,88
378,449	8,82
378,811	8,8
379,174	8,76
379,537	8,72
379,899	8,7
380,262	8,69
380,624	8,66
380,987	8,7
381,349	8,68
381,711	8,67
382,074	8,6
382,436	8,6
382,798	8,71
383,16	8,65
383,522	8,6
383,884	8,59
384,247	8,59
384,609	8,59
384,971	8,61
385,333	8,61
385,695	8,63
386,056	8,67
386,418	8,67
386,78	8,74
387,142	8,74
387,504	8,74
387,865	8,7
388,227	8,67
388,589	8,67
388,95	8,67
389,312	8,66
389,673	8,72
390,035	8,68
390,396	8,58
390,758	8,64
391,119	8,66
391,48	8,63
391,842	8,67
392,203	8,64
392,564	8,62
392,925	8,64
393,286	8,61
393,648	8,62
394,009	8,62
394,37	8,6
394,731	8,62
395,092	8,62
395,452	8,65
395,813	8,67
396,174	8,7
396,535	8,69
396,896	8,7
397,257	8,7
397,617	8,76
397,978	8,83
398,338	8,83
398,699	8,86
399,06	8,94
399,42	8,93
399,781	8,99
400,141	8,99
400,501	8,98
400,862	9,02
401,222	9,01
401,582	9,02
401,943	9,01
402,303	9,04
402,663	9,09
403,023	9,11
403,383	9,1
403,743	9,06
404,103	9,13
404,463	9,18
404,823	9,23
405,183	9,23
405,543	9,2
405,903	9,25
406,262	9,26
406,622	9,23
406,982	9,28
407,342	9,31
407,701	9,4
408,061	9,46
408,42	9,5
408,78	9,56
409,139	9,61
409,499	9,65
409,858	9,68
410,217	9,72
410,577	9,74
410,936	9,84
411,295	9,89
411,655	9,96
412,014	9,99
412,373	9,99
412,732	10,02
413,091	10,06
413,45	10,13
413,809	10,19
414,168	10,25
414,527	10,29
414,886	10,33
415,245	10,36
415,603	10,42
415,962	10,44
416,321	10,46
416,679	10,47
417,038	10,55
417,397	10,62
417,755	10,67
418,114	10,73
418,472	10,72
418,831	10,76
419,189	10,77
419,547	10,8
419,906	10,84
420,264	10,88
420,622	10,92
420,981	10,94
421,339	10,97
421,697	11,03
422,055	11,07
422,413	11,11
422,771	11,14
423,129	11,18
423,487	11,23
423,845	11,29
424,203	11,33
424,56	11,35
424,918	11,39
425,276	11,43
425,634	11,45
425,991	11,53
426,349	11,59
426,707	11,64
427,064	11,67
427,422	11,73
427,779	11,79
428,137	11,8
428,494	11,89
428,851	11,94
429,209	11,96
429,566	12
429,923	12,05
430,28	12,12
430,637	12,2
430,995	12,19
431,352	12,22
431,709	12,23
432,066	12,25
432,423	12,24
432,78	12,29
433,137	12,3
433,493	12,33
433,85	12,41
434,207	12,39
434,564	12,45
434,92	12,47
435,277	12,51
435,634	12,59
435,99	12,61
436,347	12,65
436,703	12,71
437,06	12,74
437,416	12,8
437,773	12,8
438,129	12,79
438,485	12,86
438,841	12,83
439,198	12,86
439,554	12,9
439,91	12,93
440,266	12,92
440,622	12,97
440,978	12,98
441,334	12,96
441,69	13,01
442,046	13,01
442,402	13,04
442,758	13,07
443,113	13,08
443,469	13,1
443,825	13,12
444,181	13,12
444,536	13,15
444,892	13,13
445,247	13,17
445,603	13,18
445,958	13,2
446,314	13,25
446,669	13,28
447,025	13,29
447,38	13,29
447,735	13,32
448,09	13,33
448,446	13,36
448,801	13,37
449,156	13,39
449,511	13,41
449,866	13,43
450,221	13,44
450,576	13,45
450,931	13,47
451,286	13,49
451,641	13,5
451,995	13,53
452,35	13,57
452,705	13,56
453,06	13,58
453,414	13,58
453,769	13,59
454,123	13,58
454,478	13,6
454,832	13,65
455,187	13,65
455,541	13,67
455,896	13,64
456,25	13,67
456,604	13,69
456,958	13,7
457,313	13,72
457,667	13,7
458,021	13,72
458,375	13,73
458,729	13,76
459,083	13,77
459,437	13,78
459,791	13,76
460,145	13,77
460,499	13,79
460,852	13,79
461,206	13,81
461,56	13,8
461,914	13,81
462,267	13,78
462,621	13,8
462,974	13,8
463,328	13,83
463,681	13,84
464,035	13,85
464,388	13,84
464,742	13,84
465,095	13,87
465,448	13,88
465,801	13,87
466,155	13,86
466,508	13,88
466,861	13,87
467,214	13,89
467,567	13,86
467,92	13,87
468,273	13,88
468,626	13,88
468,979	13,9
469,332	13,91
469,684	13,93
470,037	13,95
470,39	13,92
470,743	13,95
471,095	13,94
471,448	13,95
471,8	13,97
472,153	13,95
472,505	13,94
472,858	13,93
473,21	13,92
473,562	13,92
473,915	13,93
474,267	13,93
474,619	13,94
474,971	13,93
475,324	13,93
475,676	13,96
476,028	13,92
476,38	13,91
476,732	13,91
477,084	13,89
477,436	13,87
477,787	13,88
478,139	13,86
478,491	13,87
478,843	13,83
479,195	13,85
479,546	13,84
479,898	13,83
480,249	13,86
480,601	13,92
480,952	13,93
481,304	13,93
481,655	13,93
482,007	13,93
482,358	13,93
482,709	13,92
483,061	13,9
483,412	13,91
483,763	13,92
484,114	13,93
484,465	13,94
484,816	13,94
485,167	13,95
485,518	13,96
485,869	13,96
486,22	13,97
486,571	13,97
486,922	13,99
487,272	13,99
487,623	14
487,974	13,99
488,324	13,99
488,675	13,99
489,025	14
489,376	14,01
489,726	14,03
490,077	14,04
490,427	14,06
490,778	14,07
491,128	14,09
491,478	14,1
491,828	14,11
492,179	14,12
492,529	14,14
492,879	14,15
493,229	14,18
493,579	14,2
493,929	14,2
494,279	14,23
494,629	14,27
494,979	14,28
495,328	14,3
495,678	14,3
496,028	14,34
496,378	14,39
496,727	14,43
497,077	14,46
497,426	14,52
497,776	14,52
498,125	14,55
498,475	14,56
498,824	14,59
499,174	14,63
499,523	14,67
499,872	14,7
500,221	14,74
500,571	14,79
500,92	14,84
501,269	14,9
501,618	14,93
501,967	14,97
502,316	15,02
502,665	15,07
503,014	15,14
503,363	15,19
503,711	15,23
504,06	15,28
504,409	15,35
504,758	15,38
505,106	15,46
505,455	15,52
505,803	15,58
506,152	15,62
506,5	15,67
506,849	15,73
507,197	15,78
507,546	15,83
507,894	15,87
508,242	15,92
508,59	15,98
508,939	16,06
509,287	16,12
509,635	16,19
509,983	16,27
510,331	16,31
510,679	16,38
511,027	16,44
511,375	16,49
511,723	16,53
512,07	16,62
512,418	16,69
512,766	16,77
513,114	16,86
513,461	16,96
513,809	17,05
514,156	17,14
514,504	17,27
514,851	17,39
515,199	17,52
515,546	17,64
515,893	17,73
516,241	17,82
516,588	17,91
516,935	18,01
517,282	18,09
517,63	18,19
517,977	18,26
518,324	18,36
518,671	18,47
519,018	18,59
519,365	18,66
519,711	18,75
520,058	18,84
520,405	18,91
520,752	19,01
521,099	19,12
521,445	19,22
521,792	19,3
522,138	19,41
522,485	19,5
522,832	19,64
523,178	19,74
523,524	19,84
523,871	19,94
524,217	20,05
524,563	20,19
524,91	20,36
525,256	20,53
525,602	20,7
525,948	20,81
526,294	20,88
526,64	20,94
526,986	20,99
527,332	21,04
527,678	21,08
528,024	21,12
528,37	21,16
528,716	21,19
529,061	21,24
529,407	21,29
529,753	21,37
530,098	21,43
530,444	21,5
530,789	21,55
531,135	21,59
531,48	21,62
531,826	21,65
532,171	21,67
532,516	21,69
532,862	21,69
533,207	21,72
533,552	21,77
533,897	21,83
534,242	21,89
534,587	21,93
534,932	21,99
535,277	22,01
535,622	22,01
535,967	22,06
536,312	22,09
536,657	22,12
537,001	22,13
537,346	22,15
537,691	22,18
538,035	22,24
538,38	22,31
538,724	22,34
539,069	22,38
539,413	22,41
539,758	22,44
540,102	22,48
540,446	22,48
540,791	22,48
541,135	22,49
541,479	22,5
541,823	22,49
542,167	22,49
542,512	22,55
542,856	22,54
543,2	22,55
543,543	22,54
543,887	22,55
544,231	22,57
544,575	22,58
544,919	22,59
545,262	22,59
545,606	22,59
545,95	22,6
546,293	22,61
546,637	22,65
546,98	22,66
547,324	22,65
547,667	22,71
548,011	22,73
548,354	22,73
548,697	22,72
549,04	22,75
549,384	22,77
549,727	22,74
550,07	22,8
550,413	22,81
550,756	22,83
551,099	22,83
551,442	22,81
551,785	22,84
552,128	22,84
552,47	22,84
552,813	22,82
553,156	22,8
553,499	22,78
553,841	22,75
554,184	22,74
554,526	22,72
554,869	22,67
555,211	22,68
555,554	22,67
555,896	22,66
556,238	22,64
556,581	22,59
556,923	22,55
557,265	22,53
557,607	22,51
557,949	22,51
558,291	22,49
558,633	22,45
558,975	22,4
559,317	22,36
559,659	22,33
560,001	22,32
560,343	22,28
560,685	22,26
561,026	22,21
561,368	22,17
561,71	22,15
562,051	22,1
562,393	22,09
562,734	21,99
563,076	21,94
563,417	21,88
563,759	21,82
564,1	21,77
564,441	21,74
564,782	21,66
565,124	21,56
565,465	21,48
565,806	21,42
566,147	21,36
566,488	21,33
566,829	21,28
567,17	21,21
567,511	21,16
567,851	21,11
568,192	21,06
568,533	20,98
568,874	20,91
569,214	20,84
569,555	20,72
569,895	20,71
570,236	20,65
570,576	20,58
570,917	20,51
571,257	20,45
571,598	20,37
571,938	20,33
572,278	20,29
572,618	20,24
572,959	20,21
573,299	20,16
573,639	20,1
573,979	20,05
574,319	19,97
574,659	19,9
574,999	19,81
575,339	19,77
575,678	19,74
576,018	19,68
576,358	19,63
576,698	19,6
577,037	19,54
577,377	19,48
577,716	19,42
578,056	19,4
578,395	19,35
578,735	19,3
579,074	19,23
579,413	19,18
579,753	19,1
580,092	19,03
580,431	18,97
580,77	18,91
581,109	18,86
581,448	18,87
581,787	18,82
582,126	18,75
582,465	18,69
582,804	18,67
583,143	18,67
583,482	18,61
583,82	18,57
584,159	18,5
584,498	18,44
584,836	18,43
585,175	18,42
585,514	18,37
585,852	18,32
586,19	18,3
586,529	18,24
586,867	18,23
587,205	18,21
587,544	18,19
587,882	18,14
588,22	18,12
588,558	18,1
588,896	18,12
589,234	18,12
589,572	18,13
589,91	18,09
590,248	17,99
590,586	17,99
590,924	17,94
591,262	17,96
591,599	17,99
591,937	17,98
592,275	17,94
592,612	17,92
592,95	17,87
593,287	17,88
593,625	17,89
593,962	17,88
594,299	17,87
594,637	17,84
594,974	17,8
595,311	17,79
595,648	17,76
595,985	17,73
596,322	17,71
596,659	17,72
596,996	17,69
597,333	17,66
597,67	17,64
598,007	17,67
598,344	17,62
598,681	17,63
599,017	17,56
599,354	17,51
599,691	17,52
600,027	17,54
600,364	17,49
600,7	17,49
601,037	17,47
601,373	17,45
601,71	17,44
602,046	17,45
602,382	17,38
602,718	17,35
603,054	17,34
603,391	17,33
603,727	17,26
604,063	17,29
604,399	17,3
604,735	17,27
605,071	17,24
605,406	17,23
605,742	17,19
606,078	17,21
606,414	17,18
606,749	17,13
607,085	17,08
607,421	17,05
607,756	17
608,092	16,94
608,427	16,9
608,762	16,85
609,098	16,83
609,433	16,83
609,768	16,84
610,104	16,81
610,439	16,77
610,774	16,8
611,109	16,73
611,444	16,73
611,779	16,72
612,114	16,67
612,449	16,64
612,784	16,59
613,118	16,54
613,453	16,57
613,788	16,54
614,123	16,51
614,457	16,53
614,792	16,54
615,126	16,55
615,461	16,53
615,795	16,56
616,13	16,52
616,464	16,49
616,798	16,43
617,132	16,39
617,467	16,37
617,801	16,29
618,135	16,29
618,469	16,24
618,803	16,21
619,137	16,24
619,471	16,21
619,805	16,18
620,139	16,16
620,472	16,16
620,806	16,17
621,14	16,15
621,473	16,1
621,807	16,01
622,141	16
622,474	15,95
622,808	15,94
623,141	15,93
623,474	15,85
623,808	15,82
624,141	15,78
624,474	15,79
624,807	15,74
625,141	15,69
625,474	15,69
625,807	15,69
626,14	15,65
626,473	15,65
626,806	15,67
627,138	15,68
627,471	15,59
627,804	15,57
628,137	15,62
628,469	15,56
628,802	15,6
629,135	15,59
629,467	15,59
629,8	15,52
630,132	15,48
630,465	15,51
630,797	15,57
631,129	15,56
631,461	15,55
631,794	15,63
632,126	15,58
632,458	15,57
632,79	15,55
633,122	15,55
633,454	15,5
633,786	15,47
634,118	15,47
634,45	15,53
634,781	15,49
635,113	15,4
635,445	15,4
635,777	15,37
636,108	15,36
636,44	15,39
636,771	15,4
637,103	15,4
637,434	15,38
637,765	15,28
638,097	15,34
638,428	15,25
638,759	15,14
639,09	15,15
639,422	15,11
639,753	15,1
640,084	15,06
640,415	15,05
640,746	15,08
641,077	14,99
641,407	14,87
641,738	14,86
642,069	14,84
642,4	14,85
642,73	14,82
643,061	14,76
643,392	14,67
643,722	14,62
644,053	14,61
644,383	14,59
644,713	14,57
645,044	14,46
645,374	14,45
645,704	14,48
646,034	14,41
646,365	14,39
646,695	14,41
647,025	14,44
647,355	14,37
647,685	14,27
648,015	14,27
648,344	14,31
648,674	14,28
649,004	14,25
649,334	14,19
649,663	14,16
649,993	14,17
650,323	14,16
650,652	14,16
650,982	14,13
651,311	14,13
651,64	14,14
651,97	14,12
652,299	14,11
652,628	14,09
652,958	14,13
653,287	14,21
653,616	14,06
653,945	13,94
654,274	13,97
654,603	13,96
654,932	13,93
655,261	13,93
655,589	13,9
655,918	13,84
656,247	13,82
656,576	13,8
656,904	13,71
657,233	13,73
657,561	13,65
657,89	13,59
658,218	13,49
658,547	13,44
658,875	13,44
659,203	13,41
659,532	13,33
659,86	13,28
660,188	13,13
660,516	13,17
660,844	13,16
661,172	13,16
661,5	13,13
661,828	13,12
662,156	13,07
662,484	13,04
662,811	13,01
663,139	12,98
663,467	12,98
663,794	13
664,122	12,92
664,45	12,9
664,777	12,89
665,104	12,98
665,432	12,85
665,759	12,76
666,086	12,72
666,414	12,67
666,741	12,64
667,068	12,63
667,395	12,56
667,722	12,56
668,049	12,54
668,376	12,46
668,703	12,45
669,03	12,44
669,357	12,42
669,683	12,42
670,01	12,45
670,337	12,45
670,663	12,41
670,99	12,36
671,317	12,36
671,643	12,37
671,969	12,24
672,296	12,37
672,622	12,45
672,948	12,43
673,275	12,51
673,601	12,56
673,927	12,59
674,253	12,67
674,579	12,7
674,905	12,68
675,231	12,73
675,557	12,72
675,883	12,76
676,209	12,82
676,534	12,77
676,86	12,73
677,186	12,67
677,511	12,67
677,837	12,71
678,162	12,74
678,488	12,74
678,813	12,85
679,139	12,88
679,464	12,89
679,789	12,95
680,114	12,98
680,44	13
680,765	13,03
681,09	13,07
681,415	13,06
681,74	13,13
682,065	13,21
682,39	13,29
682,714	13,38
683,039	13,33
683,364	13,46
683,689	13,56
684,013	13,71
684,338	13,78
684,662	13,91
684,987	14
685,311	14,13
685,636	14,14
685,96	14,16
686,284	14,22
686,608	14,27
686,933	14,4
687,257	14,5
687,581	14,63
687,905	14,76
688,229	14,86
688,553	14,93
688,877	15,03
689,201	15,1
689,524	15,14
689,848	15,38
690,172	15,53
690,496	15,64
690,819	15,72
691,143	15,97
691,466	16,1
691,79	16,31
692,113	16,44
692,436	16,62
692,76	16,79
693,083	16,99
693,406	17,25
693,729	17,44
694,053	17,59
694,376	17,77
694,699	17,96
695,022	18,24
695,344	18,49
695,667	18,7
695,99	19,01
696,313	19,26
696,636	19,47
696,958	19,68
697,281	19,85
697,604	20,07
697,926	20,16
698,249	20,48
698,571	20,62
698,893	20,84
699,216	21,13
699,538	21,4
699,86	21,65
700,182	21,81
700,504	22
700,827	22,31
701,149	22,52
701,471	22,77
701,793	23,05
702,114	23,42
702,436	23,76
702,758	24,06
703,08	24,42
703,401	24,79
703,723	25,14
704,045	25,53
704,366	25,97
704,688	26,36
705,009	26,56
705,331	27,06
705,652	27,4
705,973	27,73
706,294	28,05
706,616	28,44
706,937	28,78
707,258	29,19
707,579	29,52
707,9	30,01
708,221	30,47
708,542	30,81
708,863	31,14
709,183	31,63
709,504	32,06
709,825	32,48
710,145	32,81
710,466	33,17
710,787	33,55
711,107	33,92
711,427	34,36
711,748	34,79
712,068	35,13
712,388	35,45
712,709	35,82
713,029	36,31
713,349	36,62
713,669	37,07
713,989	37,44
714,309	37,88
714,629	38,29
714,949	38,61
715,269	39,06
715,589	39,45
715,908	39,88
716,228	40,27
716,548	40,74
716,867	41,25
717,187	41,69
717,506	42,27
717,826	42,65
718,145	43,11
718,465	43,55
718,784	43,98
719,103	44,68
719,422	45,14
719,741	45,59
720,061	46,21
720,38	46,73
720,699	47,34
721,018	47,92
721,336	48,4
721,655	49,04
721,974	49,58
722,293	50,15
722,612	50,72
722,93	51,32
723,249	51,89
723,567	52,37
723,886	53,05
724,204	53,65
724,523	54,29
724,841	54,83
725,159	55,45
725,477	55,99
725,796	56,39
726,114	57,1
726,432	57,65
726,75	58,23
727,068	58,75
727,386	59,26
727,704	59,77
728,022	60,12
728,339	60,61
728,657	61,23
728,975	61,76
729,292	62,28
729,61	62,65
729,928	63,21
730,245	63,76
730,562	64,26
730,88	64,8
731,197	65,25
731,514	65,62
731,832	66,21
732,149	66,79
732,466	67,37
732,783	67,81
733,1	68,42
733,417	68,75
733,734	69,2
734,051	69,78
734,368	70,21
734,684	70,75
735,001	71,2
735,318	71,54
735,634	72,01
735,951	72,62
736,268	73,24
736,584	73,68
736,9	74,36
737,217	74,91
737,533	75,28
737,849	75,88
738,166	76,31
738,482	76,54
738,798	76,96
739,114	77,31
739,43	77,72
739,746	78,01
740,062	78,62
740,378	79,13
740,693	79,26
741,009	79,57
741,325	80,07
741,641	80,46
741,956	80,84
742,272	81,22
742,587	81,31
742,903	81,64
743,218	82,04
743,533	82,18
743,849	82,29
744,164	82,67
744,479	82,82
744,794	83,28
745,109	83,64
745,424	83,88
745,739	84,28
746,054	84,64
746,369	84,91
746,684	84,98
746,999	85,04
747,313	85,44
747,628	85,7
747,943	85,88
748,257	86,12
748,572	86,32
748,886	86,66
749,201	86,89
749,515	87,22
749,829	87,18
750,144	87,34
750,458	87,63
750,772	87,71
751,086	88,12
751,4	88,3
751,714	88,36
752,028	88,61
752,342	88,42
752,656	88,58
752,97	88,44
753,284	88,63
753,597	88,81
753,911	88,84
754,225	89,07
754,538	89,1
754,852	89,12
755,165	89,17
755,478	89,2
755,792	89,12
756,105	89,09
756,418	89,43
756,731	89,54
757,045	89,41
757,358	89,37
757,671	89,29
757,984	89,26
758,297	89,34
758,609	89,24
758,922	89,57
759,235	89,44
759,548	89,78
759,86	89,88
760,173	90,2
760,486	90,46
760,798	90,74
761,111	91,03
761,423	91,2
761,735	91,36
762,048	91,31
762,36	91,44
762,672	91,44
762,984	91,12
763,296	91,16
763,608	91,23
763,92	91,39
764,232	91,22
764,544	91,22
764,856	91,34
765,168	91,42
765,48	91,47
765,791	91,52
766,103	91,52
766,414	91,62
766,726	91,52
767,037	91,36
767,349	91,17
767,66	91,05
767,972	90,91
768,283	91,06
768,594	90,97
768,905	91,04
769,216	90,97
769,527	91,32
769,838	91,05
770,149	91,09
770,46	90,9
770,771	90,85
771,082	91,09
771,393	91,13
771,703	91,3
772,014	90,83
772,324	90,78
772,635	90,52
772,945	90,45
773,256	89,99
773,566	90,14
773,877	90,14
774,187	90,03
774,497	90,2
774,807	89,94
775,117	90,05
775,427	89,95
775,737	89,97
776,047	89,69
776,357	89,96
776,667	90,07
776,977	90,14
777,287	90,33
777,596	90,04
777,906	90,07
778,216	89,79
778,525	89,9
778,835	89,84
779,144	90,06
779,453	90,08
779,763	90,35
780,072	89,99
780,381	89,88
780,69	89,75
781	89,8
781,309	89,61
781,618	89,58
781,927	89,47
782,235	89,45
782,544	89,59
782,853	89,3
783,162	89,04
783,471	88,81
783,779	88,79
784,088	88,9
784,396	88,76
784,705	88,98
785,013	89,33
785,322	89,44
785,63	89,49
785,938	89,6
786,246	89,85
786,554	90,48
786,863	90,4
787,171	90,47
787,479	90,21
787,787	90,29
788,094	90,47
788,402	90,54
788,71	90,44
789,018	90,71
789,326	90,83
789,633	91,04
789,941	91,36
790,248	91,62
790,556	91,76
790,863	91,58
791,171	91,41
791,478	91,44
791,785	91,33
792,092	91,62
792,399	91,67
792,707	91,69
793,014	91,25
793,321	91,22
793,628	91,16
793,934	91,43
794,241	91,5
794,548	91,19
794,855	91,48
795,161	91,79
795,468	91,57
795,775	91,78
796,081	91,76
796,388	91,79
796,694	91,46
797	91,68
797,307	91,69
797,613	91,67
797,919	91,46
798,225	91,57
798,531	91,32
798,837	91,07
799,143	90,82
799,449	90,75
799,755	90,83
800,061	90,87
800,367	90,49
800,672	90,61
800,978	90,74
801,284	90,49
801,589	90,22
801,895	90,44
802,2	90,25
802,506	90,13
802,811	89,75
803,116	89,44
803,421	89,04
803,727	89,19
804,032	89,1
804,337	89,46
804,642	90,02
804,947	90,25
805,252	90,16
805,556	90,66
805,861	90,81
806,166	90,93
806,471	90,97
806,775	91,11
807,08	90,99
807,384	91,02
807,689	91,09
807,993	90,95
808,298	90,61
808,602	90,79
808,906	90,75
809,211	90,87
809,515	91,08
809,819	91,04
810,123	91,01
810,427	91,47
810,731	91,21
811,035	90,17
811,338	89,77
811,642	90,02
811,946	89,4
812,25	88,8
812,553	88,44
812,857	88,59
813,16	88,44
813,464	88,08
813,767	87,93
814,07	87,78
814,374	87,85
814,677	87,85
814,98	87,67
815,283	87,82
815,586	87,75
815,889	88,33
816,192	88,71
816,495	88,51
816,798	87,97
817,101	87,92
817,404	88,26
817,706	88,5
818,009	88,38
818,312	89,2
818,614	89,76
818,917	90,03
819,219	90,87
819,521	92,2
819,824	93,21
820,126	93,6
820,428	93,6
820,73	93,89
821,032	93,63
821,334	93,61
821,636	93,6
821,938	93,59
822,24	93,51
822,542	93,37
822,844	93,43
823,145	93,54
823,447	93,53
823,749	93,52
824,05	93,47
824,352	93,5
824,653	93,54
824,955	93,57
825,256	93,66
825,557	93,39
825,858	93,07
826,16	92,82
826,461	92,64
826,762	92,53
827,063	92,18
827,364	92,21
827,665	92,12
827,965	91,99
828,266	91,92
828,567	91,86
828,868	92,01
829,168	91,94
829,469	91,78
829,769	91,79
830,07	91,97
830,37	91,95
830,67	91,92
830,971	91,43
831,271	91,46
831,571	91,37
831,871	91,4
832,171	91,56
832,471	91,54
832,771	91,21
833,071	91,14
833,371	91,33
833,671	91,56
833,971	91,39
834,27	91,28
834,57	90,88
834,869	90,64
835,169	90,51
835,468	90,65
835,768	90,42
836,067	90,67
836,367	90,28
836,666	90,5
836,965	90,52
837,264	90,51
837,563	89,93
837,862	89,44
838,161	89,36
838,46	88,76
838,759	87,82
839,058	87,74
839,356	87,61
839,655	87,26
839,954	86,55
840,252	86,35
840,551	85,98
840,849	86,96
841,148	87,21
841,446	87,33
841,744	87,26
842,043	87,32
842,341	86,73
842,639	86,63
842,937	85,52
843,235	84,97
843,533	84,5
843,831	84,04
844,129	83,66
844,427	83,35
844,724	83,81
845,022	84,31
845,32	84,59
845,617	84,2
845,915	83,93
846,212	85,15
846,51	85,87
846,807	86,47
847,104	85,66
847,402	86,33
847,699	86,04
847,996	83,82
848,293	83,06
848,59	83,51
848,887	85,19
849,184	87,58
849,481	87,83
849,778	88,52
850,074	89,87
850,371	90,65
850,668	91,24
850,964	89,82
851,261	87,92
851,557	86,07
851,854	86,09
852,15	84,29
852,446	83,06
852,743	83,33
853,039	82,79
853,335	82,98
853,631	81,28
853,927	80,35
854,223	81,02
854,519	82,72
854,815	82,62
855,111	81,08
855,406	79,39
855,702	79,35
855,998	78,36
856,293	76,46
856,589	75,75
856,884	75,03
857,18	75,89
857,475	76,74
857,77	77,29
858,066	77,35
858,361	77,69
858,656	77,87
858,951	76,34
859,246	76,21
859,541	76,95
859,836	76,74
860,131	76,63
860,426	77,52
860,72	78,28
861,015	78,49
861,31	77,66
861,604	76,41
861,899	76,33
862,193	77,14
862,487	78,18
862,782	77,75
863,076	78,24
863,37	76,85
863,664	78,35
863,959	78,07
864,253	77,61
864,547	78,03
864,841	78,1
865,135	78,61
865,428	78,8
865,722	78,72
866,016	80,53
866,31	82,16
866,603	82,15
866,897	81,09
867,19	81,92
867,484	82,19
867,777	82,83
868,07	82,32
868,364	81,37
868,657	80,97
868,95	80,91
869,243	79,86
869,536	82
869,829	81,94
870,122	82,81
870,415	83,18
870,708	84,08
871	81,84
871,293	80,47
871,586	79,91
871,878	79,59
872,171	79,47
872,463	79,7
872,756	79,8
873,048	79,22
873,341	77,22
873,633	77,47
873,925	78,02
874,217	77,88
874,509	78,3
874,801	78,47
875,093	79,15
875,385	81,12
875,677	78,31
875,969	75,84
