Data from palm_tumV_d_Reflection_00004.txt Node
Date: Fri Feb 11 16:19:10 ART 2022
User: Nati
Spectrometer: USB2E3644
Trigger mode: 4
Integration Time (sec): 4,100000E-2
Scans to average: 10
Electric dark correction enabled: true
Nonlinearity correction enabled: false
Boxcar width: 10
XAxis mode: Wavelengths
Number of Pixels in Spectrum: 2048
>>>>>Begin Spectral Data<<<<<
178,315	-313,79
178,696	700
179,076	146,71
179,457	173,11
179,838	312,9
180,218	-23,53
180,599	-191,43
180,979	164,29
181,36	-277,53
181,74	-233,67
182,121	-543,9
182,501	-320,78
182,881	-319,28
183,262	-245,99
183,642	-303,05
184,022	-147,35
184,402	-136,07
184,783	-133,43
185,163	-243,61
185,543	-263,55
185,923	-267,54
186,303	-255,36
186,683	-168,66
187,063	-143,24
187,443	-125,75
187,823	-90,02
188,203	-65,3
188,583	-62,8
188,963	-68,78
189,343	-67,17
189,723	-58,48
190,102	-41,83
190,482	-36,39
190,862	-24,68
191,242	-12,18
191,621	-2,75
192,001	-0,58
192,38	9,06
192,76	10,31
193,14	15,02
193,519	21,46
193,898	23,5
194,278	30,19
194,657	31,35
195,037	36,1
195,416	40,12
195,795	44,09
196,175	45,16
196,554	42,45
196,933	39,89
197,312	41,75
197,692	41,69
198,071	44,32
198,45	50,59
198,829	56,69
199,208	59,8
199,587	60,99
199,966	63,97
200,345	66,79
200,724	73,95
201,103	74,98
201,482	70,91
201,86	71,81
202,239	65,13
202,618	65,71
202,997	66,49
203,375	68,7
203,754	72,75
204,133	77,23
204,511	79,79
204,89	83,64
205,269	82,34
205,647	83,95
206,026	84,11
206,404	80,63
206,782	79,36
207,161	72,01
207,539	65,91
207,918	58,59
208,296	55,28
208,674	51,62
209,052	51,7
209,431	51,35
209,809	48,38
210,187	48,57
210,565	42
210,943	29,82
211,321	20,3
211,699	5,18
212,077	8,09
212,455	12,48
212,833	16,69
213,211	11,79
213,589	9,64
213,967	5,17
214,345	9,62
214,722	5,18
215,1	8,66
215,478	18,2
215,855	24,82
216,233	26,83
216,611	23,02
216,988	20,12
217,366	21,14
217,743	16,91
218,121	21,8
218,498	27,62
218,876	34,3
219,253	36,78
219,631	36,92
220,008	33,04
220,385	27,65
220,762	22,57
221,14	21,78
221,517	24,82
221,894	33,28
222,271	33,28
222,648	32,08
223,025	31,17
223,402	30,26
223,78	27,87
224,157	22,31
224,533	21,3
224,91	20,57
225,287	18,2
225,664	21,5
226,041	17,81
226,418	17,71
226,795	12,44
227,171	8,27
227,548	10,77
227,925	14,7
228,301	20,03
228,678	27,4
229,055	34,84
229,431	33,18
229,808	28,63
230,184	26,38
230,561	21,21
230,937	16,73
231,313	15,52
231,69	18,95
232,066	20,99
232,442	18,56
232,819	14,24
233,195	12,22
233,571	14,59
233,947	15,09
234,323	14,18
234,699	17,54
235,075	15,87
235,451	8,51
235,827	5,77
236,203	1,95
236,579	0,6
236,955	-4,83
237,331	-10,64
237,707	-9,81
238,083	-4,9
238,459	-0,04
238,834	3,43
239,21	3,74
239,586	4,4
239,961	7,21
240,337	9,84
240,713	13,49
241,088	15,69
241,464	16,94
241,839	18,05
242,215	17,61
242,59	16,91
242,965	19,06
243,341	21,93
243,716	22,86
244,091	23,24
244,467	22,03
244,842	22,45
245,217	23,84
245,592	23,13
245,967	22,49
246,343	22,77
246,718	22,27
247,093	22,33
247,468	21,63
247,843	21,91
248,218	21,92
248,593	20,8
248,967	19,42
249,342	17,99
249,717	17,22
250,092	17,32
250,467	16,25
250,841	16,21
251,216	15,72
251,591	15,81
251,965	15,01
252,34	14,72
252,714	14,42
253,089	13,1
253,463	12,92
253,838	12,95
254,212	12,21
254,587	14,18
254,961	14,9
255,335	16,1
255,71	15,53
256,084	16,27
256,458	17,59
256,832	18,74
257,206	19,09
257,581	19,97
257,955	21,1
258,329	22,34
258,703	22,47
259,077	22,53
259,451	21,61
259,825	22,17
260,199	22,36
260,572	22,39
260,946	23,17
261,32	23,97
261,694	24,47
262,068	24,62
262,441	23,77
262,815	23,72
263,189	23,59
263,562	23,25
263,936	23,05
264,309	22,76
264,683	22,57
265,056	22,68
265,43	21,75
265,803	20,34
266,176	20,04
266,55	19,88
266,923	19,73
267,296	20,35
267,67	20,32
268,043	20,5
268,416	20,89
268,789	20,68
269,162	20,63
269,535	20,31
269,908	20,41
270,281	20,58
270,654	20,64
271,027	21,32
271,4	22,26
271,773	23,21
272,146	24,3
272,519	24,09
272,891	23,72
273,264	23,65
273,637	23,98
274,01	24,18
274,382	24,26
274,755	24,76
275,127	24,98
275,5	25,27
275,872	25,45
276,245	25,27
276,617	24,79
276,99	24,89
277,362	25,5
277,734	25,41
278,107	25,09
278,479	24,65
278,851	23,97
279,223	23,33
279,596	22,34
279,968	21,09
280,34	21,45
280,712	21,93
281,084	21,7
281,456	21,18
281,828	20,72
282,2	20,13
282,572	19,64
282,944	19,32
283,315	19,11
283,687	18,77
284,059	18,68
284,431	18,98
284,802	18,65
285,174	18,16
285,546	18,36
285,917	18,59
286,289	19,19
286,66	19,12
287,032	19,44
287,403	19,7
287,775	20,42
288,146	20,4
288,518	20,35
288,889	20,58
289,26	20,91
289,632	20,93
290,003	21,03
290,374	21,05
290,745	21,3
291,116	21,78
291,487	22,29
291,858	22,09
292,229	21,87
292,6	21,54
292,971	21,27
293,342	21,33
293,713	21,66
294,084	21,54
294,455	21,71
294,826	21,42
295,196	21,15
295,567	20,47
295,938	20,3
296,308	20,25
296,679	20,03
297,05	19,81
297,42	20,07
297,791	20,36
298,161	20,38
298,532	19,94
298,902	19,1
299,272	18,59
299,643	18,57
300,013	18,68
300,383	19,24
300,754	19,68
301,124	19,59
301,494	18,85
301,864	18,5
302,234	18,75
302,604	18,71
302,974	18,87
303,344	18,99
303,714	18,88
304,084	18,67
304,454	18,9
304,824	19,15
305,194	19,46
305,563	19,4
305,933	19,08
306,303	19,5
306,673	20,04
307,042	20,49
307,412	20,74
307,781	20,71
308,151	20,52
308,521	20,41
308,89	20,33
309,259	20,54
309,629	20,47
309,998	20,33
310,368	20,44
310,737	20,27
311,106	20,37
311,475	20,47
311,845	20,5
312,214	20,53
312,583	20,47
312,952	20,22
313,321	20,13
313,69	20,33
314,059	20,15
314,428	20,05
314,797	19,72
315,166	19,76
315,535	19,89
315,904	19,85
316,272	19,73
316,641	19,66
317,01	19,69
317,379	19,86
317,747	19,79
318,116	19,64
318,484	19,78
318,853	19,5
319,221	19,31
319,59	19,34
319,958	19,35
320,327	19,39
320,695	19,44
321,063	19,16
321,432	19,07
321,8	19,15
322,168	19,06
322,536	19,17
322,905	19,02
323,273	18,88
323,641	18,88
324,009	18,65
324,377	18,5
324,745	18,3
325,113	18
325,481	17,73
325,849	17,69
326,216	17,66
326,584	17,81
326,952	17,99
327,32	18,04
327,687	17,84
328,055	17,82
328,423	17,64
328,79	18,01
329,158	18,07
329,525	17,91
329,893	17,76
330,26	17,52
330,628	17,47
330,995	17,37
331,362	17,34
331,73	17,72
332,097	17,93
332,464	18,12
332,831	18,47
333,199	18,73
333,566	18,93
333,933	19,02
334,3	19,08
334,667	18,92
335,034	18,71
335,401	18,69
335,768	18,54
336,135	18,28
336,502	18,27
336,868	18,2
337,235	18,27
337,602	18,28
337,969	18,27
338,335	18,24
338,702	18,28
339,069	18,19
339,435	17,93
339,802	17,93
340,168	18,05
340,535	17,93
340,901	17,86
341,267	17,69
341,634	17,62
342	17,43
342,366	17,48
342,733	17,55
343,099	17,56
343,465	17,54
343,831	17,63
344,197	17,39
344,563	17,38
344,929	17,31
345,295	17,36
345,661	17,36
346,027	17,31
346,393	17,22
346,759	17,23
347,125	17,37
347,491	17,37
347,856	17,18
348,222	17,15
348,588	17,17
348,953	17,26
349,319	17,24
349,684	17,36
350,05	17,18
350,415	17,19
350,781	17,33
351,146	17,3
351,512	17,39
351,877	17,45
352,242	17,51
352,608	17,47
352,973	17,4
353,338	17,39
353,703	17,31
354,068	17,3
354,433	17,28
354,798	17,18
355,164	17,05
355,528	17,11
355,893	17,06
356,258	16,86
356,623	16,65
356,988	16,52
357,353	16,35
357,718	16,38
358,082	16,42
358,447	16,34
358,812	16,39
359,176	16,43
359,541	16,34
359,905	16,21
360,27	16,29
360,634	16,32
360,999	16,28
361,363	16,24
361,728	16,2
362,092	16,14
362,456	16,09
362,821	16,13
363,185	16,08
363,549	16,12
363,913	16,14
364,277	16,28
364,641	16,37
365,005	16,41
365,369	16,41
365,733	16,37
366,097	16,35
366,461	16,39
366,825	16,32
367,189	16,35
367,553	16,34
367,916	16,24
368,28	16,24
368,644	16,39
369,007	16,42
369,371	16,43
369,734	16,46
370,098	16,51
370,461	16,53
370,825	16,53
371,188	16,43
371,552	16,44
371,915	16,32
372,278	16,23
372,642	16,23
373,005	16,27
373,368	16,21
373,731	16,21
374,094	16,12
374,457	16,06
374,82	16,03
375,183	16,01
375,546	15,97
375,909	15,95
376,272	15,83
376,635	15,87
376,998	15,9
377,361	15,84
377,723	15,8
378,086	15,73
378,449	15,73
378,811	15,72
379,174	15,68
379,537	15,73
379,899	15,75
380,262	15,81
380,624	15,83
380,987	15,88
381,349	15,85
381,711	15,86
382,074	15,87
382,436	15,86
382,798	15,94
383,16	15,94
383,522	15,93
383,884	15,9
384,247	15,84
384,609	15,87
384,971	15,92
385,333	15,9
385,695	15,9
386,056	15,9
386,418	15,91
386,78	15,91
387,142	15,83
387,504	15,75
387,865	15,66
388,227	15,64
388,589	15,62
388,95	15,6
389,312	15,62
389,673	15,55
390,035	15,52
390,396	15,43
390,758	15,41
391,119	15,42
391,48	15,48
391,842	15,53
392,203	15,51
392,564	15,48
392,925	15,47
393,286	15,44
393,648	15,44
394,009	15,44
394,37	15,42
394,731	15,46
395,092	15,51
395,452	15,51
395,813	15,49
396,174	15,46
396,535	15,45
396,896	15,43
397,257	15,47
397,617	15,5
397,978	15,55
398,338	15,56
398,699	15,53
399,06	15,49
399,42	15,4
399,781	15,39
400,141	15,33
400,501	15,3
400,862	15,31
401,222	15,3
401,582	15,28
401,943	15,36
402,303	15,35
402,663	15,4
403,023	15,4
403,383	15,42
403,743	15,44
404,103	15,45
404,463	15,46
404,823	15,49
405,183	15,52
405,543	15,46
405,903	15,46
406,262	15,48
406,622	15,48
406,982	15,53
407,342	15,55
407,701	15,61
408,061	15,61
408,42	15,61
408,78	15,61
409,139	15,66
409,499	15,64
409,858	15,63
410,217	15,61
410,577	15,59
410,936	15,58
411,295	15,51
411,655	15,55
412,014	15,56
412,373	15,51
412,732	15,48
413,091	15,49
413,45	15,49
413,809	15,51
414,168	15,51
414,527	15,52
414,886	15,53
415,245	15,54
415,603	15,6
415,962	15,62
416,321	15,61
416,679	15,57
417,038	15,56
417,397	15,54
417,755	15,53
418,114	15,55
418,472	15,55
418,831	15,6
419,189	15,55
419,547	15,56
419,906	15,57
420,264	15,6
420,622	15,61
420,981	15,63
421,339	15,64
421,697	15,66
422,055	15,65
422,413	15,65
422,771	15,66
423,129	15,65
423,487	15,66
423,845	15,67
424,203	15,7
424,56	15,7
424,918	15,75
425,276	15,78
425,634	15,78
425,991	15,79
426,349	15,8
426,707	15,86
427,064	15,89
427,422	15,94
427,779	15,96
428,137	16,01
428,494	16,06
428,851	16,12
429,209	16,14
429,566	16,2
429,923	16,26
430,28	16,33
430,637	16,36
430,995	16,38
431,352	16,41
431,709	16,43
432,066	16,48
432,423	16,47
432,78	16,5
433,137	16,55
433,493	16,66
433,85	16,66
434,207	16,73
434,564	16,75
434,92	16,77
435,277	16,81
435,634	16,84
435,99	16,87
436,347	16,89
436,703	16,93
437,06	16,95
437,416	17
437,773	17
438,129	17,03
438,485	17,07
438,841	17,08
439,198	17,1
439,554	17,11
439,91	17,15
440,266	17,18
440,622	17,18
440,978	17,18
441,334	17,23
441,69	17,22
442,046	17,23
442,402	17,24
442,758	17,23
443,113	17,25
443,469	17,27
443,825	17,27
444,181	17,28
444,536	17,32
444,892	17,32
445,247	17,35
445,603	17,39
445,958	17,4
446,314	17,47
446,669	17,51
447,025	17,53
447,38	17,55
447,735	17,57
448,09	17,6
448,446	17,63
448,801	17,64
449,156	17,69
449,511	17,73
449,866	17,78
450,221	17,85
450,576	17,87
450,931	17,92
451,286	18
451,641	18,04
451,995	18,08
452,35	18,1
452,705	18,12
453,06	18,11
453,414	18,11
453,769	18,09
454,123	18,11
454,478	18,14
454,832	18,13
455,187	18,15
455,541	18,15
455,896	18,15
456,25	18,15
456,604	18,15
456,958	18,13
457,313	18,15
457,667	18,15
458,021	18,18
458,375	18,18
458,729	18,17
459,083	18,17
459,437	18,18
459,791	18,18
460,145	18,2
460,499	18,21
460,852	18,22
461,206	18,25
461,56	18,24
461,914	18,24
462,267	18,24
462,621	18,25
462,974	18,28
463,328	18,26
463,681	18,27
464,035	18,28
464,388	18,31
464,742	18,33
465,095	18,32
465,448	18,33
465,801	18,34
466,155	18,35
466,508	18,36
466,861	18,34
467,214	18,35
467,567	18,36
467,92	18,34
468,273	18,33
468,626	18,31
468,979	18,31
469,332	18,31
469,684	18,35
470,037	18,34
470,39	18,32
470,743	18,33
471,095	18,35
471,448	18,35
471,8	18,33
472,153	18,3
472,505	18,32
472,858	18,32
473,21	18,31
473,562	18,3
473,915	18,3
474,267	18,3
474,619	18,3
474,971	18,28
475,324	18,3
475,676	18,35
476,028	18,34
476,38	18,36
476,732	18,36
477,084	18,32
477,436	18,33
477,787	18,32
478,139	18,3
478,491	18,3
478,843	18,28
479,195	18,3
479,546	18,27
479,898	18,27
480,249	18,25
480,601	18,28
480,952	18,29
481,304	18,29
481,655	18,29
482,007	18,3
482,358	18,29
482,709	18,27
483,061	18,26
483,412	18,26
483,763	18,25
484,114	18,24
484,465	18,24
484,816	18,24
485,167	18,25
485,518	18,26
485,869	18,27
486,22	18,28
486,571	18,28
486,922	18,29
487,272	18,29
487,623	18,29
487,974	18,29
488,324	18,29
488,675	18,28
489,025	18,29
489,376	18,29
489,726	18,31
490,077	18,32
490,427	18,34
490,778	18,36
491,128	18,39
491,478	18,41
491,828	18,43
492,179	18,44
492,529	18,46
492,879	18,47
493,229	18,46
493,579	18,48
493,929	18,48
494,279	18,51
494,629	18,53
494,979	18,57
495,328	18,6
495,678	18,61
496,028	18,65
496,378	18,68
496,727	18,72
497,077	18,73
497,426	18,75
497,776	18,74
498,125	18,76
498,475	18,76
498,824	18,75
499,174	18,77
499,523	18,78
499,872	18,78
500,221	18,82
500,571	18,87
500,92	18,88
501,269	18,89
501,618	18,91
501,967	18,93
502,316	18,96
502,665	19
503,014	19,02
503,363	19,09
503,711	19,1
504,06	19,14
504,409	19,16
504,758	19,19
505,106	19,23
505,455	19,27
505,803	19,32
506,152	19,36
506,5	19,44
506,849	19,49
507,197	19,56
507,546	19,58
507,894	19,61
508,242	19,66
508,59	19,71
508,939	19,77
509,287	19,82
509,635	19,85
509,983	19,88
510,331	19,93
510,679	19,96
511,027	20,02
511,375	20,06
511,723	20,14
512,07	20,2
512,418	20,26
512,766	20,3
513,114	20,32
513,461	20,38
513,809	20,42
514,156	20,49
514,504	20,52
514,851	20,57
515,199	20,64
515,546	20,68
515,893	20,74
516,241	20,8
516,588	20,84
516,935	20,9
517,282	20,92
517,63	20,97
517,977	20,98
518,324	21,02
518,671	21,05
519,018	21,1
519,365	21,15
519,711	21,18
520,058	21,21
520,405	21,26
520,752	21,29
521,099	21,34
521,445	21,37
521,792	21,43
522,138	21,49
522,485	21,54
522,832	21,6
523,178	21,67
523,524	21,7
523,871	21,76
524,217	21,83
524,563	21,89
524,91	21,97
525,256	22,05
525,602	22,1
525,948	22,13
526,294	22,17
526,64	22,18
526,986	22,22
527,332	22,24
527,678	22,28
528,024	22,31
528,37	22,32
528,716	22,35
529,061	22,36
529,407	22,39
529,753	22,42
530,098	22,44
530,444	22,45
530,789	22,48
531,135	22,51
531,48	22,52
531,826	22,54
532,171	22,55
532,516	22,56
532,862	22,59
533,207	22,63
533,552	22,65
533,897	22,68
534,242	22,7
534,587	22,74
534,932	22,76
535,277	22,78
535,622	22,8
535,967	22,81
536,312	22,83
536,657	22,85
537,001	22,88
537,346	22,91
537,691	22,94
538,035	22,95
538,38	22,95
538,724	23
539,069	23,01
539,413	23,03
539,758	23,05
540,102	23,07
540,446	23,08
540,791	23,08
541,135	23,09
541,479	23,09
541,823	23,08
542,167	23,09
542,512	23,08
542,856	23,07
543,2	23,07
543,543	23,08
543,887	23,08
544,231	23,09
544,575	23,1
544,919	23,12
545,262	23,15
545,606	23,14
545,95	23,13
546,293	23,13
546,637	23,13
546,98	23,17
547,324	23,16
547,667	23,17
548,011	23,2
548,354	23,22
548,697	23,25
549,04	23,29
549,384	23,28
549,727	23,29
550,07	23,34
550,413	23,37
550,756	23,39
551,099	23,43
551,442	23,44
551,785	23,44
552,128	23,48
552,47	23,48
552,813	23,53
553,156	23,56
553,499	23,58
553,841	23,58
554,184	23,57
554,526	23,6
554,869	23,62
555,211	23,65
555,554	23,62
555,896	23,62
556,238	23,6
556,581	23,63
556,923	23,61
557,265	23,58
557,607	23,59
557,949	23,6
558,291	23,58
558,633	23,55
558,975	23,53
559,317	23,5
559,659	23,48
560,001	23,43
560,343	23,4
560,685	23,39
561,026	23,4
561,368	23,38
561,71	23,34
562,051	23,33
562,393	23,31
562,734	23,31
563,076	23,3
563,417	23,31
563,759	23,21
564,1	23,21
564,441	23,26
564,782	23,23
565,124	23,23
565,465	23,21
565,806	23,25
566,147	23,26
566,488	23,21
566,829	23,21
567,17	23,22
567,511	23,18
567,851	23,18
568,192	23,13
568,533	23,13
568,874	23,1
569,214	23,04
569,555	22,99
569,895	22,96
570,236	22,94
570,576	22,93
570,917	22,99
571,257	22,97
571,598	22,92
571,938	22,87
572,278	22,81
572,618	22,79
572,959	22,77
573,299	22,75
573,639	22,77
573,979	22,71
574,319	22,69
574,659	22,67
574,999	22,63
575,339	22,63
575,678	22,59
576,018	22,59
576,358	22,58
576,698	22,57
577,037	22,58
577,377	22,57
577,716	22,49
578,056	22,45
578,395	22,42
578,735	22,33
579,074	22,35
579,413	22,35
579,753	22,35
580,092	22,31
580,431	22,25
580,77	22,21
581,109	22,26
581,448	22,24
581,787	22,26
582,126	22,25
582,465	22,25
582,804	22,23
583,143	22,23
583,482	22,25
583,82	22,26
584,159	22,22
584,498	22,18
584,836	22,22
585,175	22,18
585,514	22,18
585,852	22,21
586,19	22,19
586,529	22,16
586,867	22,1
587,205	22,08
587,544	22,09
587,882	22,1
588,22	22,05
588,558	22,05
588,896	22,01
589,234	22
589,572	22
589,91	21,95
590,248	21,92
590,586	21,88
590,924	21,85
591,262	21,84
591,599	21,84
591,937	21,83
592,275	21,78
592,612	21,76
592,95	21,74
593,287	21,77
593,625	21,77
593,962	21,79
594,299	21,79
594,637	21,76
594,974	21,75
595,311	21,73
595,648	21,7
595,985	21,71
596,322	21,68
596,659	21,66
596,996	21,71
597,333	21,71
597,67	21,7
598,007	21,71
598,344	21,7
598,681	21,72
599,017	21,74
599,354	21,77
599,691	21,77
600,027	21,73
600,364	21,69
600,7	21,66
601,037	21,66
601,373	21,64
601,71	21,63
602,046	21,63
602,382	21,6
602,718	21,59
603,054	21,57
603,391	21,6
603,727	21,58
604,063	21,51
604,399	21,51
604,735	21,51
605,071	21,48
605,406	21,44
605,742	21,41
606,078	21,35
606,414	21,34
606,749	21,31
607,085	21,3
607,421	21,29
607,756	21,27
608,092	21,25
608,427	21,2
608,762	21,18
609,098	21,16
609,433	21,17
609,768	21,18
610,104	21,14
610,439	21,07
610,774	21,05
611,109	21,08
611,444	21,05
611,779	21,02
612,114	21
612,449	21,01
612,784	21
613,118	21,02
613,453	20,98
613,788	20,98
614,123	20,95
614,457	20,92
614,792	20,89
615,126	20,84
615,461	20,84
615,795	20,82
616,13	20,75
616,464	20,68
616,798	20,65
617,132	20,64
617,467	20,65
617,801	20,63
618,135	20,62
618,469	20,62
618,803	20,6
619,137	20,6
619,471	20,61
619,805	20,56
620,139	20,52
620,472	20,51
620,806	20,46
621,14	20,46
621,473	20,46
621,807	20,46
622,141	20,47
622,474	20,47
622,808	20,45
623,141	20,43
623,474	20,45
623,808	20,4
624,141	20,37
624,474	20,35
624,807	20,33
625,141	20,28
625,474	20,23
625,807	20,23
626,14	20,2
626,473	20,18
626,806	20,15
627,138	20,15
627,471	20,16
627,804	20,21
628,137	20,22
628,469	20,22
628,802	20,2
629,135	20,18
629,467	20,22
629,8	20,25
630,132	20,3
630,465	20,31
630,797	20,33
631,129	20,31
631,461	20,33
631,794	20,37
632,126	20,39
632,458	20,4
632,79	20,37
633,122	20,41
633,454	20,42
633,786	20,42
634,118	20,41
634,45	20,39
634,781	20,36
635,113	20,34
635,445	20,32
635,777	20,35
636,108	20,37
636,44	20,29
636,771	20,25
637,103	20,18
637,434	20,18
637,765	20,19
638,097	20,24
638,428	20,2
638,759	20,15
639,09	20,11
639,422	20,12
639,753	20,19
640,084	20,18
640,415	20,13
640,746	20,1
641,077	20,07
641,407	20,04
641,738	20
642,069	20,01
642,4	20
642,73	19,93
643,061	19,84
643,392	19,83
643,722	19,82
644,053	19,84
644,383	19,81
644,713	19,75
645,044	19,7
645,374	19,71
645,704	19,68
646,034	19,65
646,365	19,6
646,695	19,5
647,025	19,47
647,355	19,38
647,685	19,31
648,015	19,29
648,344	19,29
648,674	19,27
649,004	19,17
649,334	19,12
649,663	19,07
649,993	19,09
650,323	19,05
650,652	19,02
650,982	19
651,311	18,99
651,64	18,94
651,97	18,9
652,299	18,88
652,628	18,86
652,958	18,86
653,287	18,91
653,616	18,93
653,945	18,88
654,274	18,9
654,603	18,88
654,932	18,83
655,261	18,82
655,589	18,78
655,918	18,82
656,247	18,78
656,576	18,81
656,904	18,77
657,233	18,76
657,561	18,73
657,89	18,68
658,218	18,63
658,547	18,62
658,875	18,57
659,203	18,53
659,532	18,5
659,86	18,48
660,188	18,36
660,516	18,3
660,844	18,3
661,172	18,28
661,5	18,25
661,828	18,26
662,156	18,19
662,484	18,17
662,811	18,12
663,139	18,08
663,467	18,01
663,794	17,97
664,122	17,92
664,45	17,89
664,777	17,85
665,104	17,82
665,432	17,79
665,759	17,78
666,086	17,73
666,414	17,64
666,741	17,58
667,068	17,52
667,395	17,48
667,722	17,4
668,049	17,39
668,376	17,43
668,703	17,45
669,03	17,41
669,357	17,41
669,683	17,35
670,01	17,36
670,337	17,34
670,663	17,3
670,99	17,27
671,317	17,24
671,643	17,21
671,969	17,22
672,296	17,28
672,622	17,28
672,948	17,26
673,275	17,36
673,601	17,34
673,927	17,37
674,253	17,38
674,579	17,4
674,905	17,36
675,231	17,36
675,557	17,36
675,883	17,41
676,209	17,44
676,534	17,5
676,86	17,48
677,186	17,5
677,511	17,54
677,837	17,59
678,162	17,62
678,488	17,59
678,813	17,54
679,139	17,5
679,464	17,56
679,789	17,58
680,114	17,57
680,44	17,58
680,765	17,61
681,09	17,63
681,415	17,65
681,74	17,75
682,065	17,79
682,39	17,78
682,714	17,78
683,039	17,82
683,364	17,87
683,689	17,94
684,013	18,04
684,338	18,13
684,662	18,18
684,987	18,23
685,311	18,38
685,636	18,56
685,96	18,65
686,284	18,69
686,608	18,78
686,933	18,85
687,257	18,96
687,581	19,08
687,905	19,18
688,229	19,28
688,553	19,32
688,877	19,44
689,201	19,58
689,524	19,78
689,848	19,82
690,172	19,92
690,496	20,09
690,819	20,2
691,143	20,28
691,466	20,41
691,79	20,57
692,113	20,74
692,436	20,8
692,76	20,87
693,083	20,97
693,406	21,12
693,729	21,24
694,053	21,4
694,376	21,57
694,699	21,73
695,022	21,88
695,344	22,01
695,667	22,18
695,99	22,31
696,313	22,4
696,636	22,54
696,958	22,65
697,281	22,7
697,604	22,78
697,926	22,88
698,249	23,01
698,571	23,13
698,893	23,25
699,216	23,4
699,538	23,66
699,86	23,85
700,182	23,99
700,504	24,16
700,827	24,3
701,149	24,44
701,471	24,59
701,793	24,83
702,114	25,05
702,436	25,25
702,758	25,45
703,08	25,67
703,401	25,95
703,723	26,23
704,045	26,46
704,366	26,63
704,688	26,91
705,009	27,08
705,331	27,2
705,652	27,34
705,973	27,59
706,294	27,68
706,616	27,76
706,937	27,92
707,258	27,99
707,579	28,26
707,9	28,4
708,221	28,59
708,542	28,7
708,863	28,86
709,183	29
709,504	29,31
709,825	29,59
710,145	29,87
710,466	29,99
710,787	30,16
711,107	30,41
711,427	30,61
711,748	30,82
712,068	30,93
712,388	31,14
712,709	31,12
713,029	31,25
713,349	31,41
713,669	31,68
713,989	31,88
714,309	31,96
714,629	32,17
714,949	32,4
715,269	32,61
715,589	32,83
715,908	33,09
716,228	33,21
716,548	33,19
716,867	33,25
717,187	33,5
717,506	33,79
717,826	33,96
718,145	34,09
718,465	34,26
718,784	34,58
719,103	34,72
719,422	35,19
719,741	35,44
720,061	35,77
720,38	35,89
720,699	36,17
721,018	36,44
721,336	36,65
721,655	36,94
721,974	37,2
722,293	37,46
722,612	37,73
722,93	37,95
723,249	38,26
723,567	38,49
723,886	38,6
724,204	38,72
724,523	39,03
724,841	39,25
725,159	39,54
725,477	39,76
725,796	40,03
726,114	40,16
726,432	40,54
726,75	40,72
727,068	41
727,386	41,35
727,704	41,67
728,022	42,04
728,339	42,08
728,657	42,26
728,975	42,5
729,292	42,77
729,61	42,98
729,928	43,24
730,245	43,5
730,562	43,74
730,88	44,12
731,197	44,34
731,514	44,6
731,832	44,7
732,149	44,93
732,466	45,15
732,783	45,43
733,1	45,59
733,417	45,84
733,734	46,1
734,051	46,41
734,368	46,56
734,684	46,7
735,001	47,01
735,318	47,2
735,634	47,32
735,951	47,39
736,268	47,62
736,584	47,93
736,9	48,27
737,217	48,53
737,533	48,67
737,849	48,93
738,166	49
738,482	49,26
738,798	49,49
739,114	49,69
739,43	49,87
739,746	50
740,062	50,33
740,378	50,5
740,693	50,49
741,009	50,81
741,325	51,01
741,641	51,24
741,956	51,7
742,272	51,96
742,587	52,25
742,903	52,32
743,218	52,33
743,533	52,3
743,849	52,48
744,164	52,65
744,479	52,8
744,794	52,92
745,109	53,11
745,424	53,2
745,739	53,27
746,054	53,29
746,369	53,49
746,684	53,64
746,999	53,7
747,313	53,89
747,628	53,95
747,943	53,93
748,257	53,82
748,572	53,74
748,886	53,77
749,201	53,72
749,515	53,75
749,829	53,76
750,144	53,99
750,458	54,15
750,772	54,21
751,086	54,28
751,4	54,62
751,714	54,72
752,028	54,82
752,342	55,21
752,656	55,33
752,97	55,5
753,284	55,44
753,597	55,57
753,911	55,59
754,225	55,58
754,538	55,79
754,852	56,26
755,165	56,38
755,478	56,53
755,792	56,74
756,105	56,99
756,418	57,33
756,731	57,41
757,045	57,62
757,358	57,63
757,671	57,74
757,984	57,76
758,297	57,86
758,609	58,07
758,922	57,83
759,235	58,02
759,548	57,89
759,86	57,99
760,173	57,93
760,486	57,72
760,798	57,67
761,111	57,68
761,423	57,74
761,735	57,71
762,048	57,77
762,36	57,83
762,672	57,91
762,984	57,88
763,296	57,84
763,608	57,72
763,92	57,73
764,232	57,74
764,544	57,7
764,856	57,62
765,168	57,7
765,48	57,9
765,791	57,85
766,103	57,87
766,414	57,8
766,726	57,92
767,037	58,2
767,349	58,33
767,66	58,29
767,972	58,03
768,283	58,32
768,594	58,5
768,905	58,47
769,216	58,45
769,527	58,58
769,838	58,53
770,149	58,67
770,46	58,77
770,771	58,67
771,082	58,8
771,393	58,98
771,703	59,03
772,014	58,72
772,324	58,99
772,635	59,23
772,945	59,51
773,256	59,62
773,566	59,66
773,877	59,84
774,187	59,83
774,497	60,02
774,807	59,83
775,117	59,9
775,427	59,88
775,737	60,03
776,047	59,95
776,357	60,32
776,667	60,1
776,977	60,39
777,287	60,64
777,596	60,89
777,906	61,12
778,216	60,78
778,525	61,01
778,835	60,57
779,144	60,44
779,453	60,34
779,763	60,42
780,072	60,45
780,381	60,37
780,69	60,94
781	61,26
781,309	61,29
781,618	60,98
781,927	60,91
782,235	60,73
782,544	60,97
782,853	61,14
783,162	61,67
783,471	61,45
783,779	61,12
784,088	60,76
784,396	60,67
784,705	60,59
785,013	60,93
785,322	61,29
785,63	61,31
785,938	61,43
786,246	61,05
786,554	60,93
786,863	60,98
787,171	60,52
787,479	60,41
787,787	60,39
788,094	60,67
788,402	61,09
788,71	61,38
789,018	61,54
789,326	61,44
789,633	61,33
789,941	61,48
790,248	61,94
790,556	62,43
790,863	62,32
791,171	62,41
791,478	62,18
791,785	62,18
792,092	62,4
792,399	62,14
792,707	62,36
793,014	62,84
793,321	62,74
793,628	62,96
793,934	63,02
794,241	63,07
794,548	62,82
794,855	62,45
795,161	62,42
795,468	62,07
795,775	61,66
796,081	61,48
796,388	61,39
796,694	61,47
797	61,31
797,307	61,39
797,613	61,54
797,919	61,55
798,225	61,43
798,531	61,43
798,837	61,67
799,143	61,84
799,449	61,46
799,755	61,58
800,061	61,41
800,367	61,35
800,672	61,37
800,978	61,76
801,284	61,79
801,589	61,64
801,895	61,65
802,2	62,23
802,506	62,36
802,811	62,63
803,116	62,76
803,421	62,96
803,727	62,99
804,032	63,08
804,337	62,71
804,642	62,52
804,947	62,02
805,252	61,89
805,556	61,96
805,861	62,17
806,166	62,6
806,471	62,64
806,775	62,3
807,08	62,45
807,384	62,58
807,689	62,87
807,993	63,36
808,298	63,6
808,602	63,61
808,906	63,47
809,211	62,92
809,515	62,07
809,819	61,59
810,123	61,59
810,427	61,86
810,731	62,12
811,035	62,28
811,338	62,64
811,642	62,55
811,946	62,79
812,25	62,53
812,553	62,05
812,857	62,09
813,16	62,04
813,464	61,81
813,767	61,53
814,07	61,51
814,374	60,65
814,677	60,44
814,98	60,06
815,283	60,61
815,586	61,04
815,889	61,86
816,192	61,87
816,495	61,69
816,798	61,3
817,101	62,06
817,404	62,33
817,706	62,41
818,009	62,6
818,312	62,68
818,614	63,21
818,917	62,66
819,219	62,36
819,521	62,88
819,824	63,08
820,126	62,85
820,428	63,1
820,73	63,19
821,032	63,12
821,334	63
821,636	62,79
821,938	62,8
822,24	62,73
822,542	62,76
822,844	62,84
823,145	62,87
823,447	62,77
823,749	62,75
824,05	62,7
824,352	62,7
824,653	62,68
824,955	62,59
825,256	62,69
825,557	62,86
825,858	62,73
826,16	62,74
826,461	62,77
826,762	62,52
827,063	62,49
827,364	62,6
827,665	62,72
827,965	63,07
828,266	63,11
828,567	63,14
828,868	63,03
829,168	62,94
829,469	63
829,769	63,06
830,07	63,12
830,37	63,46
830,67	63,69
830,971	63,57
831,271	63,53
831,571	63,39
831,871	63,31
832,171	63,34
832,471	63,2
832,771	63,45
833,071	63,51
833,371	63,44
833,671	63,28
833,971	63,33
834,27	63,01
834,57	63,02
834,869	62,95
835,169	63,03
835,468	62,89
835,768	62,76
836,067	62,64
836,367	62,57
836,666	62,49
836,965	62,13
837,264	61,8
837,563	61,77
837,862	62,08
838,161	62,12
838,46	62,32
838,759	62,04
839,058	61,86
839,356	62,42
839,655	62,68
839,954	62,86
840,252	63,11
840,551	63,42
840,849	63,16
841,148	62,97
841,446	63,24
841,744	63,94
842,043	64,42
842,341	63,68
842,639	62,79
842,937	61,99
843,235	61,82
843,533	62,41
843,831	63,25
844,129	64,05
844,427	63,77
844,724	63,27
845,022	63,42
845,32	63,29
845,617	62,05
845,915	61,72
846,212	61,48
846,51	59,64
846,807	57,53
847,104	57,16
847,402	58,12
847,699	57,22
847,996	56,62
848,293	56,15
848,59	55,96
848,887	56,52
849,184	56,79
849,481	58,23
849,778	58,61
850,074	57,3
850,371	56,34
850,668	55,86
850,964	56,87
851,261	57,47
851,557	57,98
851,854	58,67
852,15	58,58
852,446	58,07
852,743	58,36
853,039	59,7
853,335	61,17
853,631	61,2
853,927	62,11
854,223	62,01
854,519	61,03
854,815	62,88
855,111	63,64
855,406	63,06
855,702	61,75
855,998	60,37
856,293	60,27
856,589	60,52
856,884	59,94
857,18	57,67
857,475	56,11
857,77	55,57
858,066	53,46
858,361	53,21
858,656	53,29
858,951	55,1
859,246	55,68
859,541	53,95
859,836	52,4
860,131	51,28
860,426	50,05
860,72	50,36
861,015	48,92
861,31	50,12
861,604	51,96
861,899	52,96
862,193	53,64
862,487	53,03
862,782	53,4
863,076	55,31
863,37	56,33
863,664	57,28
863,959	54,72
864,253	54,68
864,547	57,68
864,841	59,61
865,135	60,13
865,428	59,17
865,722	59,16
866,016	59,71
866,31	62,01
866,603	64,86
866,897	65,46
867,19	66,49
867,484	65,8
867,777	64,09
868,07	62,33
868,364	64,1
868,657	65,45
868,95	65,05
869,243	63,94
869,536	64
869,829	64,69
870,122	67,98
870,415	69,89
870,708	66,75
871	63,82
871,293	60,95
871,586	59,58
871,878	59,09
872,171	57,68
872,463	55,29
872,756	53,86
873,048	54,82
873,341	54,72
873,633	54,06
873,925	54,95
874,217	56,46
874,509	54,88
874,801	53,54
875,093	52,15
875,385	50,97
875,677	49,8
875,969	47,29
