Data from palm_tumV_v_45_25_Reflection_00003.txt Node
Date: Fri Feb 11 15:37:28 ART 2022
User: Nati
Spectrometer: USB2E3644
Trigger mode: 4
Integration Time (sec): 3,520000E-1
Scans to average: 10
Electric dark correction enabled: true
Nonlinearity correction enabled: false
Boxcar width: 10
XAxis mode: Wavelengths
Number of Pixels in Spectrum: 2048
>>>>>Begin Spectral Data<<<<<
178,315	-265,35
178,696	-745,45
179,076	-256,12
179,457	-350
179,838	-70,77
180,218	-62,93
180,599	-132,58
180,979	28,57
181,36	82,07
181,74	76,82
182,121	67,47
182,501	151,72
182,881	57,14
183,262	12,9
183,642	69,39
184,022	97,39
184,402	64,83
184,783	9,17
185,163	-26,21
185,543	-26,74
185,923	-132,17
186,303	-143,53
186,683	-36,89
187,063	-187,76
187,443	793,1
187,823	436,14
188,203	214,21
188,583	164,74
188,963	175,98
189,343	210,18
189,723	305,95
190,102	253,06
190,482	176,82
190,862	140,71
191,242	123,83
191,621	119,06
192,001	108,65
192,38	96,56
192,76	83,66
193,14	74,01
193,519	69,31
193,898	66,54
194,278	66,73
194,657	62,06
195,037	56,1
195,416	45,83
195,795	37,32
196,175	41,85
196,554	35,96
196,933	24,2
197,312	31,72
197,692	12,48
198,071	8,34
198,45	7,72
198,829	13,11
199,208	12,02
199,587	2,61
199,966	-6,19
200,345	-11,13
200,724	-14,03
201,103	-6,94
201,482	-3,59
201,86	-3,36
202,239	-7,39
202,618	-15,17
202,997	-4,54
203,375	9,76
203,754	14,35
204,133	3,03
204,511	7,72
204,89	8,57
205,269	2,49
205,647	18,69
206,026	24,46
206,404	20,95
206,782	-9,98
207,161	-16,27
207,539	-37,84
207,918	-61,92
208,296	-99,68
208,674	-93,52
209,052	-70,2
209,431	-125,47
209,809	-2709,09
210,187	1077,42
210,565	1757,89
210,943	460,76
211,321	229,95
211,699	200,98
212,077	512,94
212,455	629,09
212,833	-478,05
213,211	-160,75
213,589	-135,33
213,967	-117,15
214,345	-67,9
214,722	-48,26
215,1	-48,97
215,478	-17,52
215,855	18,26
216,233	23,84
216,611	24,89
216,988	14,87
217,366	26,65
217,743	32,28
218,121	38,27
218,498	35,99
218,876	29,58
219,253	36,32
219,631	36,05
220,008	45,22
220,385	41,42
220,762	26,55
221,14	24,36
221,517	21,92
221,894	21,17
222,271	21,27
222,648	35,96
223,025	56,14
223,402	77,2
223,78	65,86
224,157	65,26
224,533	51,34
224,91	37,14
225,287	8,61
225,664	-13,13
226,041	-17,7
226,418	-8,96
226,795	7,54
227,171	3,39
227,548	1,74
227,925	-3,71
228,301	-13,53
228,678	-28,03
229,055	-18,6
229,431	-11,79
229,808	-1,25
230,184	-2,78
230,561	-12,84
230,937	-31,13
231,313	-52,38
231,69	-54,05
232,066	-48,87
232,442	-28,83
232,819	-21,5
233,195	-15,47
233,571	-5,87
233,947	-3,15
234,323	-4,24
234,699	-5,5
235,075	-2,48
235,451	-6,35
235,827	-0,83
236,203	-0,8
236,579	10,24
236,955	10,2
237,331	12,17
237,707	7,8
238,083	10,24
238,459	10,54
238,834	11,42
239,21	16,75
239,586	19,07
239,961	19,44
240,337	17,39
240,713	19,67
241,088	21,05
241,464	21,97
241,839	23,72
242,215	22,64
242,59	20,65
242,965	20,15
243,341	19,54
243,716	19,01
244,091	18,75
244,467	18,03
244,842	18,59
245,217	18,44
245,592	19,09
245,967	18,91
246,343	19,72
246,718	21,37
247,093	21,21
247,468	20,62
247,843	20,63
248,218	21,26
248,593	21,31
248,967	21,71
249,342	21,4
249,717	20,93
250,092	21,45
250,467	21,6
250,841	21,32
251,216	21,76
251,591	22,12
251,965	23,18
252,34	23,94
252,714	23,66
253,089	24,77
253,463	24,61
253,838	25,38
254,212	24,14
254,587	22,01
254,961	21,23
255,335	21,26
255,71	20,92
256,084	19,22
256,458	18,05
256,832	17,03
257,206	16,61
257,581	16,17
257,955	15,7
258,329	16,15
258,703	16,62
259,077	16,17
259,451	16,35
259,825	16,21
260,199	16,27
260,572	16
260,946	15,75
261,32	16,66
261,694	16,47
262,068	16,93
262,441	16,97
262,815	16,84
263,189	16,44
263,562	16,07
263,936	16,05
264,309	16,1
264,683	16,47
265,056	17,01
265,43	16,94
265,803	17,59
266,176	17,61
266,55	18,33
266,923	19,2
267,296	18,95
267,67	18,62
268,043	18,23
268,416	18,24
268,789	17,46
269,162	16,6
269,535	17,07
269,908	17,22
270,281	17,35
270,654	17,2
271,027	17,35
271,4	17,84
271,773	18,08
272,146	17,68
272,519	17,7
272,891	17,69
273,264	17,88
273,637	17,87
274,01	17,65
274,382	17,34
274,755	17,37
275,127	17,54
275,5	18,3
275,872	18,38
276,245	18,49
276,617	19,43
276,99	19,7
277,362	18,9
277,734	18,29
278,107	18,78
278,479	19,43
278,851	19,68
279,223	19,58
279,596	19,66
279,968	19,52
280,34	19,14
280,712	19,19
281,084	19,69
281,456	19,62
281,828	19,95
282,2	19,83
282,572	19,37
282,944	19,37
283,315	19,07
283,687	19,56
284,059	19,72
284,431	19,78
284,802	19,88
285,174	20,2
285,546	20,17
285,917	19,78
286,289	19,75
286,66	19,51
287,032	19,43
287,403	19,35
287,775	19,76
288,146	19,76
288,518	19,62
288,889	19,18
289,26	18,97
289,632	18,48
290,003	18,27
290,374	18,53
290,745	18,2
291,116	18,18
291,487	17,74
291,858	17,47
292,229	17,15
292,6	17
292,971	16,99
293,342	17
293,713	16,76
294,084	16,59
294,455	16,73
294,826	16,92
295,196	16,95
295,567	16,88
295,938	16,86
296,308	17,01
296,679	17,36
297,05	17,7
297,42	17,87
297,791	18,1
298,161	17,68
298,532	17,9
298,902	17,87
299,272	18,25
299,643	18,44
300,013	18,59
300,383	18,43
300,754	17,94
301,124	17,76
301,494	17,88
301,864	17,6
302,234	17,27
302,604	17,11
302,974	17,16
303,344	17,5
303,714	17,72
304,084	17,68
304,454	17,74
304,824	17,78
305,194	17,79
305,563	17,47
305,933	17,71
306,303	17,74
306,673	17,86
307,042	17,35
307,412	17,22
307,781	17,16
308,151	17,31
308,521	17,9
308,89	18,29
309,259	18,33
309,629	18,43
309,998	18,41
310,368	18,42
310,737	18,19
311,106	17,87
311,475	17,85
311,845	17,67
312,214	17,31
312,583	17,05
312,952	16,76
313,321	16,77
313,69	16,81
314,059	16,47
314,428	16,12
314,797	16,08
315,166	15,82
315,535	15,41
315,904	15
316,272	14,5
316,641	14,21
317,01	14,13
317,379	14,27
317,747	14,27
318,116	14,06
318,484	14,11
318,853	13,75
319,221	13,43
319,59	13,53
319,958	13,68
320,327	13,67
320,695	13,64
321,063	13,48
321,432	13,36
321,8	13,51
322,168	13,55
322,536	13,55
322,905	13,6
323,273	13,87
323,641	14,12
324,009	14,22
324,377	14,15
324,745	14,2
325,113	14,25
325,481	14,32
325,849	14,56
326,216	14,65
326,584	14,83
326,952	14,96
327,32	14,92
327,687	14,76
328,055	14,66
328,423	14,82
328,79	15,09
329,158	15,2
329,525	15,28
329,893	15,37
330,26	15,62
330,628	15,63
330,995	15,39
331,362	15,29
331,73	15,3
332,097	15,36
332,464	15,34
332,831	15,23
333,199	15,12
333,566	15
333,933	14,93
334,3	14,92
334,667	14,89
335,034	14,79
335,401	14,93
335,768	14,97
336,135	14,87
336,502	14,64
336,868	14,65
337,235	14,53
337,602	14,45
337,969	14,27
338,335	14,29
338,702	14,45
339,069	14,4
339,435	14,45
339,802	14,39
340,168	14,33
340,535	14,26
340,901	14,39
341,267	14,4
341,634	14,35
342	14,34
342,366	14,39
342,733	14,42
343,099	14,31
343,465	14,27
343,831	14,36
344,197	14,53
344,563	14,45
344,929	14,37
345,295	14,34
345,661	14,35
346,027	14,43
346,393	14,39
346,759	14,41
347,125	14,37
347,491	14,28
347,856	14,22
348,222	14,29
348,588	14,21
348,953	14,16
349,319	14,18
349,684	14,13
350,05	14,09
350,415	14,07
350,781	14,1
351,146	14,03
351,512	13,91
351,877	13,78
352,242	13,8
352,608	13,84
352,973	13,81
353,338	13,72
353,703	13,63
354,068	13,59
354,433	13,56
354,798	13,56
355,164	13,72
355,528	13,77
355,893	13,75
356,258	13,78
356,623	13,79
356,988	13,79
357,353	13,71
357,718	13,58
358,082	13,67
358,447	13,63
358,812	13,71
359,176	13,78
359,541	13,72
359,905	13,63
360,27	13,62
360,634	13,63
360,999	13,66
361,363	13,67
361,728	13,73
362,092	13,8
362,456	13,81
362,821	13,69
363,185	13,7
363,549	13,67
363,913	13,7
364,277	13,68
364,641	13,66
365,005	13,75
365,369	13,83
365,733	13,72
366,097	13,7
366,461	13,65
366,825	13,6
367,189	13,62
367,553	13,76
367,916	13,79
368,28	13,87
368,644	13,85
369,007	13,85
369,371	13,82
369,734	13,81
370,098	13,75
370,461	13,8
370,825	13,72
371,188	13,72
371,552	13,66
371,915	13,67
372,278	13,68
372,642	13,71
373,005	13,72
373,368	13,75
373,731	13,81
374,094	13,87
374,457	13,82
374,82	13,87
375,183	13,75
375,546	13,69
375,909	13,57
376,272	13,56
376,635	13,53
376,998	13,52
377,361	13,47
377,723	13,45
378,086	13,42
378,449	13,43
378,811	13,44
379,174	13,4
379,537	13,34
379,899	13,31
380,262	13,29
380,624	13,24
380,987	13,21
381,349	13,19
381,711	13,16
382,074	13,13
382,436	13,06
382,798	13,28
383,16	13,22
383,522	13,25
383,884	13,28
384,247	13,33
384,609	13,34
384,971	13,35
385,333	13,39
385,695	13,38
386,056	13,42
386,418	13,44
386,78	13,55
387,142	13,49
387,504	13,5
387,865	13,47
388,227	13,48
388,589	13,52
388,95	13,52
389,312	13,51
389,673	13,58
390,035	13,59
390,396	13,4
390,758	13,46
391,119	13,47
391,48	13,46
391,842	13,45
392,203	13,42
392,564	13,45
392,925	13,44
393,286	13,42
393,648	13,41
394,009	13,37
394,37	13,29
394,731	13,34
395,092	13,34
395,452	13,33
395,813	13,35
396,174	13,31
396,535	13,29
396,896	13,27
397,257	13,22
397,617	13,23
397,978	13,33
398,338	13,31
398,699	13,32
399,06	13,39
399,42	13,33
399,781	13,34
400,141	13,28
400,501	13,28
400,862	13,32
401,222	13,29
401,582	13,33
401,943	13,34
402,303	13,36
402,663	13,35
403,023	13,32
403,383	13,31
403,743	13,32
404,103	13,36
404,463	13,35
404,823	13,37
405,183	13,35
405,543	13,29
405,903	13,29
406,262	13,27
406,622	13,22
406,982	13,28
407,342	13,28
407,701	13,31
408,061	13,32
408,42	13,34
408,78	13,34
409,139	13,34
409,499	13,34
409,858	13,37
410,217	13,39
410,577	13,41
410,936	13,45
411,295	13,43
411,655	13,41
412,014	13,48
412,373	13,5
412,732	13,5
413,091	13,5
413,45	13,48
413,809	13,47
414,168	13,43
414,527	13,4
414,886	13,39
415,245	13,37
415,603	13,37
415,962	13,35
416,321	13,38
416,679	13,33
417,038	13,34
417,397	13,32
417,755	13,33
418,114	13,34
418,472	13,34
418,831	13,37
419,189	13,37
419,547	13,33
419,906	13,36
420,264	13,37
420,622	13,39
420,981	13,43
421,339	13,45
421,697	13,48
422,055	13,51
422,413	13,54
422,771	13,57
423,129	13,58
423,487	13,62
423,845	13,62
424,203	13,66
424,56	13,7
424,918	13,73
425,276	13,77
425,634	13,82
425,991	13,85
426,349	13,87
426,707	13,93
427,064	13,97
427,422	14
427,779	14,08
428,137	14,13
428,494	14,2
428,851	14,28
429,209	14,32
429,566	14,39
429,923	14,45
430,28	14,5
430,637	14,58
430,995	14,58
431,352	14,63
431,709	14,67
432,066	14,72
432,423	14,74
432,78	14,78
433,137	14,79
433,493	14,84
433,85	14,93
434,207	14,92
434,564	14,99
434,92	15,04
435,277	15,06
435,634	15,1
435,99	15,12
436,347	15,17
436,703	15,25
437,06	15,3
437,416	15,36
437,773	15,41
438,129	15,47
438,485	15,56
438,841	15,58
439,198	15,62
439,554	15,64
439,91	15,68
440,266	15,71
440,622	15,75
440,978	15,8
441,334	15,81
441,69	15,87
442,046	15,93
442,402	15,97
442,758	16,02
443,113	16,07
443,469	16,12
443,825	16,16
444,181	16,18
444,536	16,23
444,892	16,25
445,247	16,28
445,603	16,28
445,958	16,3
446,314	16,35
446,669	16,39
447,025	16,42
447,38	16,47
447,735	16,49
448,09	16,53
448,446	16,56
448,801	16,58
449,156	16,62
449,511	16,65
449,866	16,71
450,221	16,75
450,576	16,81
450,931	16,87
451,286	16,91
451,641	16,95
451,995	16,98
452,35	17,04
452,705	17,07
453,06	17,13
453,414	17,16
453,769	17,17
454,123	17,19
454,478	17,2
454,832	17,24
455,187	17,25
455,541	17,28
455,896	17,31
456,25	17,33
456,604	17,36
456,958	17,37
457,313	17,39
457,667	17,41
458,021	17,42
458,375	17,44
458,729	17,47
459,083	17,5
459,437	17,52
459,791	17,52
460,145	17,55
460,499	17,55
460,852	17,56
461,206	17,61
461,56	17,62
461,914	17,63
462,267	17,62
462,621	17,67
462,974	17,68
463,328	17,72
463,681	17,74
464,035	17,76
464,388	17,78
464,742	17,75
465,095	17,77
465,448	17,81
465,801	17,79
466,155	17,8
466,508	17,83
466,861	17,83
467,214	17,85
467,567	17,85
467,92	17,86
468,273	17,89
468,626	17,88
468,979	17,91
469,332	17,9
469,684	17,91
470,037	17,91
470,39	17,91
470,743	17,91
471,095	17,94
471,448	17,95
471,8	17,97
472,153	18
472,505	18,01
472,858	17,98
473,21	17,99
473,562	18,01
473,915	18,01
474,267	18,03
474,619	18,03
474,971	18,02
475,324	18,02
475,676	18,04
476,028	18,03
476,38	18,02
476,732	18,05
477,084	18,05
477,436	18,05
477,787	18,04
478,139	18,05
478,491	18,04
478,843	18,01
479,195	18,02
479,546	18,02
479,898	18,05
480,249	18,15
480,601	18,22
480,952	18,26
481,304	18,27
481,655	18,26
482,007	18,26
482,358	18,27
482,709	18,27
483,061	18,25
483,412	18,25
483,763	18,25
484,114	18,25
484,465	18,26
484,816	18,25
485,167	18,26
485,518	18,26
485,869	18,27
486,22	18,28
486,571	18,29
486,922	18,3
487,272	18,3
487,623	18,26
487,974	18,23
488,324	18,2
488,675	18,2
489,025	18,2
489,376	18,21
489,726	18,21
490,077	18,22
490,427	18,23
490,778	18,25
491,128	18,26
491,478	18,27
491,828	18,3
492,179	18,33
492,529	18,34
492,879	18,36
493,229	18,37
493,579	18,39
493,929	18,41
494,279	18,43
494,629	18,45
494,979	18,48
495,328	18,51
495,678	18,55
496,028	18,6
496,378	18,65
496,727	18,7
497,077	18,76
497,426	18,83
497,776	18,84
498,125	18,88
498,475	18,89
498,824	18,93
499,174	18,93
499,523	18,96
499,872	18,99
500,221	19,01
500,571	19,06
500,92	19,1
501,269	19,15
501,618	19,19
501,967	19,23
502,316	19,26
502,665	19,31
503,014	19,35
503,363	19,37
503,711	19,4
504,06	19,43
504,409	19,47
504,758	19,47
505,106	19,53
505,455	19,59
505,803	19,64
506,152	19,7
506,5	19,76
506,849	19,82
507,197	19,87
507,546	19,93
507,894	19,98
508,242	20,03
508,59	20,06
508,939	20,1
509,287	20,17
509,635	20,22
509,983	20,28
510,331	20,32
510,679	20,39
511,027	20,45
511,375	20,51
511,723	20,55
512,07	20,63
512,418	20,68
512,766	20,75
513,114	20,81
513,461	20,88
513,809	20,95
514,156	21,01
514,504	21,06
514,851	21,13
515,199	21,2
515,546	21,28
515,893	21,39
516,241	21,48
516,588	21,54
516,935	21,61
517,282	21,68
517,63	21,75
517,977	21,79
518,324	21,86
518,671	21,91
519,018	21,97
519,365	22,03
519,711	22,11
520,058	22,16
520,405	22,22
520,752	22,28
521,099	22,34
521,445	22,42
521,792	22,48
522,138	22,56
522,485	22,64
522,832	22,75
523,178	22,82
523,524	22,89
523,871	22,94
524,217	23
524,563	23,08
524,91	23,17
525,256	23,31
525,602	23,43
525,948	23,51
526,294	23,56
526,64	23,58
526,986	23,61
527,332	23,64
527,678	23,67
528,024	23,69
528,37	23,74
528,716	23,75
529,061	23,78
529,407	23,82
529,753	23,86
530,098	23,89
530,444	23,93
530,789	23,96
531,135	23,99
531,48	24,02
531,826	24,03
532,171	24,07
532,516	24,07
532,862	24,08
533,207	24,09
533,552	24,11
533,897	24,14
534,242	24,16
534,587	24,2
534,932	24,25
535,277	24,27
535,622	24,27
535,967	24,3
536,312	24,34
536,657	24,37
537,001	24,4
537,346	24,42
537,691	24,43
538,035	24,48
538,38	24,51
538,724	24,54
539,069	24,56
539,413	24,58
539,758	24,6
540,102	24,63
540,446	24,64
540,791	24,67
541,135	24,7
541,479	24,71
541,823	24,7
542,167	24,7
542,512	24,73
542,856	24,74
543,2	24,76
543,543	24,75
543,887	24,77
544,231	24,78
544,575	24,8
544,919	24,82
545,262	24,83
545,606	24,86
545,95	24,87
546,293	24,9
546,637	24,91
546,98	24,92
547,324	24,91
547,667	24,96
548,011	24,98
548,354	24,99
548,697	25
549,04	25,04
549,384	25,02
549,727	25
550,07	25,04
550,413	25,04
550,756	25,08
551,099	25,08
551,442	25,08
551,785	25,08
552,128	25,09
552,47	25,1
552,813	25,08
553,156	25,11
553,499	25,13
553,841	25,12
554,184	25,14
554,526	25,13
554,869	25,1
555,211	25,09
555,554	25,09
555,896	25,11
556,238	25,1
556,581	25,11
556,923	25,1
557,265	25,09
557,607	25,08
557,949	25,05
558,291	25,01
558,633	24,98
558,975	24,97
559,317	24,95
559,659	24,92
560,001	24,9
560,343	24,85
560,685	24,82
561,026	24,81
561,368	24,78
561,71	24,78
562,051	24,74
562,393	24,78
562,734	24,69
563,076	24,66
563,417	24,63
563,759	24,62
564,1	24,6
564,441	24,57
564,782	24,55
565,124	24,52
565,465	24,49
565,806	24,5
566,147	24,47
566,488	24,46
566,829	24,47
567,17	24,46
567,511	24,44
567,851	24,39
568,192	24,34
568,533	24,29
568,874	24,27
569,214	24,25
569,555	24,16
569,895	24,17
570,236	24,12
570,576	24,08
570,917	24,05
571,257	23,99
571,598	23,94
571,938	23,88
572,278	23,86
572,618	23,84
572,959	23,82
573,299	23,78
573,639	23,75
573,979	23,7
574,319	23,65
574,659	23,61
574,999	23,57
575,339	23,54
575,678	23,51
576,018	23,45
576,358	23,42
576,698	23,4
577,037	23,4
577,377	23,38
577,716	23,35
578,056	23,31
578,395	23,31
578,735	23,29
579,074	23,27
579,413	23,22
579,753	23,22
580,092	23,19
580,431	23,16
580,77	23,14
581,109	23,1
581,448	23,08
581,787	23,03
582,126	23,06
582,465	23,05
582,804	23,02
583,143	23,04
583,482	22,94
583,82	22,92
584,159	22,87
584,498	22,85
584,836	22,85
585,175	22,86
585,514	22,81
585,852	22,77
586,19	22,79
586,529	22,78
586,867	22,75
587,205	22,69
587,544	22,7
587,882	22,68
588,22	22,67
588,558	22,66
588,896	22,66
589,234	22,62
589,572	22,59
589,91	22,59
590,248	22,53
590,586	22,59
590,924	22,56
591,262	22,58
591,599	22,57
591,937	22,57
592,275	22,49
592,612	22,5
592,95	22,5
593,287	22,5
593,625	22,47
593,962	22,46
594,299	22,44
594,637	22,42
594,974	22,39
595,311	22,37
595,648	22,34
595,985	22,35
596,322	22,33
596,659	22,38
596,996	22,37
597,333	22,33
597,67	22,32
598,007	22,32
598,344	22,28
598,681	22,34
599,017	22,26
599,354	22,27
599,691	22,28
600,027	22,31
600,364	22,29
600,7	22,3
601,037	22,27
601,373	22,28
601,71	22,26
602,046	22,29
602,382	22,29
602,718	22,29
603,054	22,27
603,391	22,29
603,727	22,22
604,063	22,25
604,399	22,25
604,735	22,23
605,071	22,22
605,406	22,23
605,742	22,17
606,078	22,2
606,414	22,18
606,749	22,15
607,085	22,1
607,421	22,07
607,756	22,05
608,092	22,03
608,427	21,99
608,762	21,99
609,098	21,94
609,433	21,93
609,768	21,93
610,104	21,93
610,439	21,87
610,774	21,9
611,109	21,81
611,444	21,83
611,779	21,82
612,114	21,76
612,449	21,74
612,784	21,7
613,118	21,66
613,453	21,67
613,788	21,63
614,123	21,59
614,457	21,57
614,792	21,56
615,126	21,54
615,461	21,55
615,795	21,48
616,13	21,47
616,464	21,44
616,798	21,41
617,132	21,38
617,467	21,36
617,801	21,26
618,135	21,26
618,469	21,22
618,803	21,21
619,137	21,25
619,471	21,21
619,805	21,2
620,139	21,16
620,472	21,15
620,806	21,15
621,14	21,13
621,473	21,16
621,807	21,11
622,141	21,11
622,474	21,07
622,808	21,09
623,141	21,07
623,474	21,05
623,808	21,02
624,141	21,02
624,474	21,05
624,807	21,06
625,141	21,05
625,474	21,08
625,807	21,04
626,14	20,98
626,473	20,98
626,806	20,97
627,138	21
627,471	20,92
627,804	20,92
628,137	20,95
628,469	20,84
628,802	20,82
629,135	20,8
629,467	20,8
629,8	20,8
630,132	20,76
630,465	20,76
630,797	20,77
631,129	20,69
631,461	20,66
631,794	20,76
632,126	20,69
632,458	20,67
632,79	20,65
633,122	20,7
633,454	20,68
633,786	20,63
634,118	20,66
634,45	20,73
634,781	20,71
635,113	20,68
635,445	20,71
635,777	20,71
636,108	20,7
636,44	20,67
636,771	20,65
637,103	20,61
637,434	20,61
637,765	20,6
638,097	20,69
638,428	20,63
638,759	20,47
639,09	20,49
639,422	20,45
639,753	20,5
640,084	20,44
640,415	20,45
640,746	20,47
641,077	20,34
641,407	20,26
641,738	20,25
642,069	20,16
642,4	20,12
642,73	20,13
643,061	20,1
643,392	20,06
643,722	20,02
644,053	20,03
644,383	19,98
644,713	19,92
645,044	19,81
645,374	19,81
645,704	19,87
646,034	19,85
646,365	19,79
646,695	19,76
647,025	19,78
647,355	19,69
647,685	19,62
648,015	19,63
648,344	19,63
648,674	19,62
649,004	19,62
649,334	19,63
649,663	19,58
649,993	19,57
650,323	19,58
650,652	19,55
650,982	19,49
651,311	19,46
651,64	19,42
651,97	19,38
652,299	19,37
652,628	19,3
652,958	19,28
653,287	19,44
653,616	19,34
653,945	19,29
654,274	19,35
654,603	19,35
654,932	19,37
655,261	19,34
655,589	19,32
655,918	19,27
656,247	19,21
656,576	19,18
656,904	19,06
657,233	19,08
657,561	19,02
657,89	19,01
658,218	19,03
658,547	19,06
658,875	19,03
659,203	19,03
659,532	19,01
659,86	19,01
660,188	18,87
660,516	18,89
660,844	18,82
661,172	18,77
661,5	18,69
661,828	18,63
662,156	18,59
662,484	18,54
662,811	18,5
663,139	18,48
663,467	18,44
663,794	18,48
664,122	18,41
664,45	18,42
664,777	18,4
665,104	18,38
665,432	18,19
665,759	18,13
666,086	18,1
666,414	17,97
666,741	17,9
667,068	17,81
667,395	17,73
667,722	17,77
668,049	17,77
668,376	17,76
668,703	17,72
669,03	17,7
669,357	17,62
669,683	17,56
670,01	17,52
670,337	17,5
670,663	17,54
670,99	17,49
671,317	17,44
671,643	17,43
671,969	17,29
672,296	17,32
672,622	17,33
672,948	17,26
673,275	17,31
673,601	17,32
673,927	17,3
674,253	17,25
674,579	17,19
674,905	17,08
675,231	17,07
675,557	17,07
675,883	17,06
676,209	17,12
676,534	17,1
676,86	17,12
677,186	17,09
677,511	17,03
677,837	17,01
678,162	17,05
678,488	17,05
678,813	17,17
679,139	17,22
679,464	17,25
679,789	17,24
680,114	17,28
680,44	17,28
680,765	17,29
681,09	17,36
681,415	17,38
681,74	17,48
682,065	17,51
682,39	17,53
682,714	17,63
683,039	17,65
683,364	17,78
683,689	17,76
684,013	17,87
684,338	17,88
684,662	17,97
684,987	17,96
685,311	18,02
685,636	18
685,96	18,09
686,284	18,21
686,608	18,31
686,933	18,4
687,257	18,49
687,581	18,67
687,905	18,73
688,229	18,79
688,553	18,85
688,877	18,94
689,201	19,02
689,524	19,06
689,848	19,22
690,172	19,29
690,496	19,5
690,819	19,59
691,143	19,81
691,466	19,96
691,79	20,23
692,113	20,47
692,436	20,63
692,76	20,73
693,083	20,83
693,406	21,03
693,729	21,22
694,053	21,41
694,376	21,6
694,699	21,83
695,022	22,06
695,344	22,3
695,667	22,6
695,99	22,83
696,313	23
696,636	23,12
696,958	23,29
697,281	23,45
697,604	23,66
697,926	23,75
698,249	23,99
698,571	24,02
698,893	24,02
699,216	24,19
699,538	24,4
699,86	24,58
700,182	24,7
700,504	24,8
700,827	24,97
701,149	25,1
701,471	25,3
701,793	25,49
702,114	25,68
702,436	25,86
702,758	26,16
703,08	26,45
703,401	26,73
703,723	26,99
704,045	27,22
704,366	27,48
704,688	27,73
705,009	27,84
705,331	28,17
705,652	28,46
705,973	28,65
706,294	28,82
706,616	29,04
706,937	29,28
707,258	29,54
707,579	29,72
707,9	29,92
708,221	30,06
708,542	30,32
708,863	30,55
709,183	30,73
709,504	30,87
709,825	31,06
710,145	31,3
710,466	31,45
710,787	31,71
711,107	31,86
711,427	32,12
711,748	32,38
712,068	32,52
712,388	32,83
712,709	33,16
713,029	33,5
713,349	33,66
713,669	33,83
713,989	34,02
714,309	34,24
714,629	34,46
714,949	34,81
715,269	35,04
715,589	35,32
715,908	35,56
716,228	35,85
716,548	36,12
716,867	36,37
717,187	36,68
717,506	36,85
717,826	37,14
718,145	37,43
718,465	37,7
718,784	38,12
719,103	38,34
719,422	38,53
719,741	38,77
720,061	39,18
720,38	39,55
720,699	39,8
721,018	40,19
721,336	40,45
721,655	40,71
721,974	41,09
722,293	41,35
722,612	41,7
722,93	41,97
723,249	42,17
723,567	42,41
723,886	42,72
724,204	43,09
724,523	43,33
724,841	43,47
725,159	43,82
725,477	44,04
725,796	44,37
726,114	44,75
726,432	45,19
726,75	45,38
727,068	45,65
727,386	45,97
727,704	46,31
728,022	46,65
728,339	46,86
728,657	47,09
728,975	47,49
729,292	47,71
729,61	48,06
729,928	48,36
730,245	48,64
730,562	48,91
730,88	49,14
731,197	49,38
731,514	49,78
731,832	49,9
732,149	50,16
732,466	50,39
732,783	50,52
733,1	50,66
733,417	50,98
733,734	51,29
734,051	51,63
734,368	51,75
734,684	52,06
735,001	52,5
735,318	52,74
735,634	52,92
735,951	53,22
736,268	53,53
736,584	53,8
736,9	54,13
737,217	54,5
737,533	54,78
737,849	55,04
738,166	55,36
738,482	55,63
738,798	56,05
739,114	56,42
739,43	56,77
739,746	57,03
740,062	57,38
740,378	57,6
740,693	57,83
741,009	58,17
741,325	58,31
741,641	58,36
741,956	58,71
742,272	58,94
742,587	59,16
742,903	59,17
743,218	59,51
743,533	59,68
743,849	59,85
744,164	60,14
744,479	60,46
744,794	60,65
745,109	61,06
745,424	61,07
745,739	61,24
746,054	61,44
746,369	61,51
746,684	61,54
746,999	61,72
747,313	61,96
747,628	62,09
747,943	62,37
748,257	62,54
748,572	62,83
748,886	62,99
749,201	63,13
749,515	63,39
749,829	63,35
750,144	63,66
750,458	63,71
750,772	63,74
751,086	63,92
751,4	63,84
751,714	63,88
752,028	63,97
752,342	63,96
752,656	64,1
752,97	64,21
753,284	64,26
753,597	64,19
753,911	64,31
754,225	64,32
754,538	64,33
754,852	64,43
755,165	64,28
755,478	64,41
755,792	64,6
756,105	64,66
756,418	64,94
756,731	64,99
757,045	65,17
757,358	65,33
757,671	65,32
757,984	65,53
758,297	65,51
758,609	65,52
758,922	65,67
759,235	65,7
759,548	65,55
759,86	65,75
760,173	65,88
760,486	65,93
760,798	66,05
761,111	66,15
761,423	66,21
761,735	66,14
762,048	66,16
762,36	66,15
762,672	66,18
762,984	66,12
763,296	66,02
763,608	66,06
763,92	66,1
764,232	66,08
764,544	66,08
764,856	66,12
765,168	66,09
765,48	66,06
765,791	66,14
766,103	66,44
766,414	66,37
766,726	66,45
767,037	66,28
767,349	66,15
767,66	66,06
767,972	66,14
768,283	66,25
768,594	66,24
768,905	66,44
769,216	66,5
769,527	66,58
769,838	66,64
770,149	66,74
770,46	66,82
770,771	66,95
771,082	66,95
771,393	67,12
771,703	67,44
772,014	67,36
772,324	67,26
772,635	67,32
772,945	67,44
773,256	67,37
773,566	67,24
773,877	67,47
774,187	67,55
774,497	67,29
774,807	67,19
775,117	67,16
775,427	67,03
775,737	67,14
776,047	67,52
776,357	67,79
776,667	67,61
776,977	67,55
777,287	67,96
777,596	68,07
777,906	68,04
778,216	68,12
778,525	68,55
778,835	68,77
779,144	69,88
779,453	69,95
779,763	70,1
780,072	70,41
780,381	70,54
780,69	70,84
781	71,14
781,309	71,2
781,618	71,38
781,927	71,48
782,235	71,48
782,544	71,26
782,853	70,95
783,162	71
783,471	71,37
783,779	70,97
784,088	71,07
784,396	71,07
784,705	71,04
785,013	70,93
785,322	70,65
785,63	69,46
785,938	69,6
786,246	69,76
786,554	69,79
786,863	69,38
787,171	69,35
787,479	69,32
787,787	69,56
788,094	69,79
788,402	69,64
788,71	69,6
789,018	69,62
789,326	69,45
789,633	69,53
789,941	69,1
790,248	69,18
790,556	69,23
790,863	69,39
791,171	69,22
791,478	69,34
791,785	69,45
792,092	69,48
792,399	69,32
792,707	68,89
793,014	69,13
793,321	69,45
793,628	69,12
793,934	69,08
794,241	68,84
794,548	68,36
794,855	68,43
795,161	68,35
795,468	68,35
795,775	68,78
796,081	68,87
796,388	69,35
796,694	69,54
797	69,56
797,307	69,16
797,613	69,23
797,919	68,99
798,225	69,05
798,531	68,87
798,837	69,01
799,143	69,37
799,449	69,24
799,755	69,36
800,061	69,5
800,367	69,83
800,672	70,35
800,978	70,79
801,284	71,1
801,589	71,09
801,895	71,14
802,2	71,36
802,506	71,61
802,811	71,59
803,116	71,58
803,421	71,57
803,727	71,86
804,032	71,98
804,337	72,25
804,642	71,96
804,947	71,77
805,252	71,81
805,556	72,16
805,861	72,4
806,166	72,33
806,471	72,49
806,775	72,68
807,08	72,48
807,384	72,1
807,689	71,83
807,993	71,91
808,298	72,04
808,602	71,7
808,906	71,44
809,211	71,37
809,515	71,57
809,819	71,64
810,123	71,42
810,427	71,63
810,731	71,59
811,035	72,2
811,338	72,58
811,642	72,35
811,946	71,95
812,25	72,11
812,553	72,17
812,857	72,28
813,16	71,74
813,464	71,42
813,767	71,85
814,07	72,05
814,374	72,35
814,677	72,45
814,98	72,92
815,283	72,77
815,586	72,26
815,889	71,86
816,192	71,77
816,495	72,31
816,798	72,05
817,101	72,17
817,404	72,02
817,706	71,78
818,009	71,76
818,312	71,69
818,614	71,11
818,917	71,02
819,219	71,08
819,521	71,12
819,824	70,88
820,126	70,58
820,428	70,29
820,73	70,3
821,032	70,15
821,334	69,94
821,636	69,91
821,938	69,94
822,24	69,92
822,542	69,93
822,844	69,95
823,145	69,89
823,447	69,86
823,749	69,83
824,05	69,92
824,352	69,98
824,653	69,95
824,955	69,99
825,256	70,02
825,557	69,89
825,858	69,85
826,16	69,84
826,461	69,97
826,762	70,16
827,063	70,11
827,364	70,25
827,665	70,45
827,965	70,54
828,266	70,6
828,567	70,74
828,868	70,82
829,168	70,51
829,469	70,58
829,769	70,44
830,07	70,49
830,37	70,58
830,67	70,38
830,971	70,59
831,271	70,66
831,571	70,68
831,871	70,56
832,171	70,64
832,471	71,04
832,771	71,09
833,071	70,78
833,371	70,9
833,671	70,79
833,971	70,75
834,27	70,71
834,57	70,77
834,869	70,91
835,169	70,79
835,468	71,35
835,768	71,34
836,067	71,64
836,367	71,85
836,666	71,63
836,965	71,95
837,264	71,9
837,563	71,73
837,862	71,59
838,161	72,08
838,46	72,08
838,759	71,89
839,058	71,29
839,356	71,57
839,655	71,27
839,954	70,77
840,252	70,62
840,551	70,75
840,849	70,7
841,148	69,94
841,446	70,01
841,744	69,57
842,043	70,1
842,341	69,95
842,639	68,91
842,937	68,41
843,235	68,16
843,533	67,78
843,831	68,12
844,129	68,04
844,427	67,7
844,724	67,19
845,022	67,21
845,32	67,27
845,617	67,15
845,915	67,67
846,212	69,44
846,51	70,65
846,807	70,66
847,104	70,41
847,402	70,27
847,699	69,87
847,996	68,77
848,293	68,07
848,59	68,73
848,887	69,2
849,184	69,84
849,481	70,26
849,778	71,28
850,074	72,68
850,371	73,64
850,668	74,4
850,964	73,42
851,261	72,91
851,557	73,86
851,854	73,25
852,15	72,62
852,446	72,34
852,743	72,15
853,039	74,56
853,335	75,28
853,631	76,94
853,927	77,5
854,223	78,47
854,519	79,77
854,815	77,96
855,111	78,67
855,406	78,44
855,702	77,73
855,998	76,86
856,293	75,69
856,589	76,03
856,884	76,32
857,18	79,5
857,475	78,77
857,77	79,18
858,066	81,25
858,361	81,43
858,656	80,19
858,951	78,39
859,246	76,82
859,541	78,32
859,836	77,78
860,131	79,92
860,426	79,88
860,72	77,76
861,015	78,38
861,31	78,2
861,604	77,7
861,899	79,04
862,193	80,73
862,487	81,91
862,782	82,6
863,076	82,01
863,37	80,46
863,664	81,77
863,959	80,79
864,253	78,23
864,547	78,01
864,841	78,11
865,135	78,67
865,428	76,4
865,722	73,42
866,016	70,93
866,31	68,23
866,603	68,59
866,897	69,5
867,19	70,75
867,484	72,3
867,777	74,33
868,07	71,92
868,364	70,18
868,657	70,61
868,95	69,19
869,243	70,86
869,536	71,72
869,829	70,68
870,122	71,32
870,415	71,99
870,708	72,26
871	71,88
871,293	72,46
871,586	75,21
871,878	77,67
872,171	78,09
872,463	78,14
872,756	77,32
873,048	77,24
873,341	77,21
873,633	75,92
873,925	74,35
874,217	75,6
874,509	76,18
874,801	74,52
875,093	74,05
875,385	72,73
875,677	71,18
875,969	73,05
