Data from palm_cartel_d_45_25_Reflection_00002.txt Node
Date: Fri Feb 11 15:41:44 ART 2022
User: Nati
Spectrometer: USB2E3644
Trigger mode: 4
Integration Time (sec): 3,520000E-1
Scans to average: 10
Electric dark correction enabled: true
Nonlinearity correction enabled: false
Boxcar width: 10
XAxis mode: Wavelengths
Number of Pixels in Spectrum: 2048
>>>>>Begin Spectral Data<<<<<
178,315	58,74
178,696	62,5
179,076	52,35
179,457	36,8
179,838	62,77
180,218	37,1
180,599	-320
180,979	-127,78
181,36	-46,4
181,74	-44,94
182,121	815,38
182,501	316,28
182,881	-178,31
183,262	-96,22
183,642	-72,4
184,022	-52,92
184,402	-63,94
184,783	-48,63
185,163	-31,48
185,543	-0,77
185,923	-3
186,303	-25,25
186,683	-44,39
187,063	-25,57
187,443	-46
187,823	-85,97
188,203	-369,01
188,583	-371,43
188,963	-680
189,343	1189,47
189,723	-941,18
190,102	-127,71
190,482	-93,07
190,862	229,85
191,242	97,84
191,621	67,43
192,001	87,12
192,38	53,08
192,76	40,43
193,14	25,71
193,519	21,24
193,898	17,51
194,278	14,83
194,657	15,16
195,037	26,82
195,416	25,37
195,795	24,38
196,175	32,29
196,554	30,48
196,933	28,32
197,312	23,63
197,692	37,92
198,071	38,98
198,45	24,23
198,829	8,7
199,208	-0,3
199,587	-3,64
199,966	-11,93
200,345	-2,64
200,724	14,66
201,103	15,03
201,482	16,98
201,86	24,36
202,239	21,76
202,618	4,9
202,997	-4,81
203,375	9,4
203,754	22,42
204,133	21,97
204,511	22,38
204,89	19,16
205,269	18,32
205,647	15,59
206,026	13,71
206,404	22,13
206,782	22,06
207,161	24,73
207,539	29,94
207,918	28,85
208,296	20,03
208,674	2,08
209,052	-0,37
209,431	-3,36
209,809	-17,16
210,187	-16,11
210,565	-13,58
210,943	-31
211,321	-69,32
211,699	-132,29
212,077	-390,73
212,455	-824,66
212,833	-1961,29
213,211	-407,52
213,589	-273,17
213,967	-261,88
214,345	-337,14
214,722	-365,52
215,1	-394,24
215,478	-693,67
215,855	-278,11
216,233	-166,04
216,611	-240,98
216,988	-248,13
217,366	-393,98
217,743	-717,81
218,121	-1513,51
218,498	-523,08
218,876	-123,55
219,253	-82,49
219,631	-46,92
220,008	-25,05
220,385	-37
220,762	-36,36
221,14	-57,85
221,517	-67,13
221,894	-66,4
222,271	-64,32
222,648	-78,76
223,025	-35,99
223,402	-29,83
223,78	-38,4
224,157	-11,08
224,533	1,83
224,91	-3,23
225,287	-2,16
225,664	0,55
226,041	-2,84
226,418	13,64
226,795	20,8
227,171	22,8
227,548	32,99
227,925	45,12
228,301	57,93
228,678	52,5
229,055	57,14
229,431	55,47
229,808	51,01
230,184	45,84
230,561	40,88
230,937	28,61
231,313	25,32
231,69	17,25
232,066	3,28
232,442	3,19
232,819	12,17
233,195	21,73
233,571	20,51
233,947	20,38
234,323	10,54
234,699	4,73
235,075	8,06
235,451	-4,08
235,827	-10,19
236,203	-10,81
236,579	-2,03
236,955	-0,15
237,331	4,88
237,707	4,89
238,083	0,62
238,459	0,57
238,834	6,07
239,21	12,3
239,586	13,86
239,961	18,99
240,337	18,59
240,713	19,66
241,088	22,62
241,464	26,86
241,839	29,94
242,215	29,9
242,59	28,67
242,965	26,74
243,341	24,4
243,716	25,52
244,091	24,3
244,467	24,27
244,842	24,47
245,217	24,18
245,592	25,5
245,967	27,85
246,343	28,74
246,718	28,35
247,093	27,72
247,468	28,01
247,843	26,51
248,218	26,21
248,593	24,58
248,967	23,23
249,342	22,02
249,717	20,87
250,092	20,08
250,467	19,87
250,841	19,02
251,216	20,39
251,591	20
251,965	20,41
252,34	20,64
252,714	19,19
253,089	19,16
253,463	17,85
253,838	14,36
254,212	12,18
254,587	13,74
254,961	15,42
255,335	16,15
255,71	17,55
256,084	17,98
256,458	18,68
256,832	18,67
257,206	18,53
257,581	19,61
257,955	19,88
258,329	20,04
258,703	20,75
259,077	20,67
259,451	20,77
259,825	21,03
260,199	20,9
260,572	21,31
260,946	21,4
261,32	21,52
261,694	22,83
262,068	23,88
262,441	23,52
262,815	22,51
263,189	22,53
263,562	22,85
263,936	23,19
264,309	24,13
264,683	25,13
265,056	25,81
265,43	25,4
265,803	25,36
266,176	24,89
266,55	24,77
266,923	25,09
267,296	24,18
267,67	23,28
268,043	23,31
268,416	23,53
268,789	22,92
269,162	22,09
269,535	21,55
269,908	21,58
270,281	21,85
270,654	21,37
271,027	21,14
271,4	20,43
271,773	20,51
272,146	19,69
272,519	19,28
272,891	19,23
273,264	19,06
273,637	18,72
274,01	18,77
274,382	19,06
274,755	19,44
275,127	20,18
275,5	21,63
275,872	21,86
276,245	22,07
276,617	22,77
276,99	23,39
277,362	23,37
277,734	22,64
278,107	22,96
278,479	24,57
278,851	25
279,223	25,03
279,596	24,49
279,968	24,84
280,34	24,89
280,712	25,05
281,084	25,73
281,456	26,19
281,828	26,35
282,2	26
282,572	25,28
282,944	24,68
283,315	24,16
283,687	24,03
284,059	23,58
284,431	23,23
284,802	23,28
285,174	22,94
285,546	23,13
285,917	22,81
286,289	22,55
286,66	22,46
287,032	22,73
287,403	23,12
287,775	22,93
288,146	22,92
288,518	22,7
288,889	22,12
289,26	21,95
289,632	21,72
290,003	21,31
290,374	21,52
290,745	21,63
291,116	21,24
291,487	21,13
291,858	21,08
292,229	20,96
292,6	20,84
292,971	20,81
293,342	20,44
293,713	20,21
294,084	19,61
294,455	19,51
294,826	19,47
295,196	19,37
295,567	19,31
295,938	19,1
296,308	18,63
296,679	18,41
297,05	17,77
297,42	17,37
297,791	17,57
298,161	17,26
298,532	17,44
298,902	17,35
299,272	17,07
299,643	16,41
300,013	16,13
300,383	16,11
300,754	16,01
301,124	16,46
301,494	16,55
301,864	16,74
302,234	16,41
302,604	15,7
302,974	15,74
303,344	15,85
303,714	15,83
304,084	16,11
304,454	16,2
304,824	16,79
305,194	17,21
305,563	17,49
305,933	18,1
306,303	17,95
306,673	18
307,042	17,93
307,412	18,44
307,781	18,64
308,151	18,35
308,521	18,39
308,89	18,38
309,259	18,36
309,629	18,17
309,998	18,28
310,368	18,69
310,737	18,58
311,106	18,58
311,475	18,52
311,845	18,71
312,214	18,86
312,583	18,79
312,952	18,68
313,321	18,16
313,69	17,68
314,059	17,53
314,428	17,32
314,797	17,35
315,166	17,3
315,535	17,47
315,904	17,59
316,272	17,37
316,641	16,97
317,01	16,65
317,379	16,63
317,747	16,29
318,116	15,97
318,484	15,82
318,853	15,76
319,221	15,81
319,59	15,73
319,958	15,95
320,327	15,9
320,695	15,91
321,063	16
321,432	15,92
321,8	15,83
322,168	16
322,536	16,22
322,905	16,23
323,273	15,96
323,641	15,92
324,009	16,04
324,377	16,26
324,745	16,47
325,113	16,48
325,481	16,76
325,849	16,94
326,216	16,99
326,584	16,69
326,952	16,56
327,32	16,36
327,687	16,1
328,055	16,1
328,423	16,09
328,79	16,05
329,158	15,94
329,525	15,89
329,893	15,72
330,26	15,64
330,628	15,5
330,995	15,46
331,362	15,46
331,73	15,47
332,097	15,19
332,464	15,08
332,831	15,14
333,199	15,03
333,566	14,96
333,933	14,77
334,3	14,79
334,667	14,72
335,034	14,69
335,401	14,61
335,768	14,51
336,135	14,56
336,502	14,74
336,868	14,88
337,235	15,06
337,602	15,03
337,969	14,79
338,335	14,64
338,702	14,52
339,069	14,48
339,435	14,4
339,802	14,46
340,168	14,52
340,535	14,44
340,901	14,41
341,267	14,29
341,634	14,18
342	14,1
342,366	14,09
342,733	14,11
343,099	14,02
343,465	13,98
343,831	13,86
344,197	13,65
344,563	13,6
344,929	13,42
345,295	13,46
345,661	13,57
346,027	13,61
346,393	13,53
346,759	13,43
347,125	13,37
347,491	13,39
347,856	13,3
348,222	13,22
348,588	13,12
348,953	13,09
349,319	13,15
349,684	13,2
350,05	13,09
350,415	13,1
350,781	13,05
351,146	12,98
351,512	13
351,877	13,01
352,242	12,96
352,608	12,92
352,973	12,85
353,338	12,83
353,703	12,86
354,068	12,95
354,433	12,97
354,798	12,99
355,164	12,93
355,528	12,97
355,893	12,97
356,258	13
356,623	13,03
356,988	13,09
357,353	13,16
357,718	13,22
358,082	13,17
358,447	13,28
358,812	13,3
359,176	13,23
359,541	13,2
359,905	13,19
360,27	13,21
360,634	13,2
360,999	13,19
361,363	13,24
361,728	13,23
362,092	13,22
362,456	13,21
362,821	13,23
363,185	13,2
363,549	13,23
363,913	13,26
364,277	13,22
364,641	13,25
365,005	13,26
365,369	13,33
365,733	13,33
366,097	13,3
366,461	13,3
366,825	13,31
367,189	13,32
367,553	13,33
367,916	13,37
368,28	13,44
368,644	13,44
369,007	13,31
369,371	13,28
369,734	13,28
370,098	13,24
370,461	13,21
370,825	13,17
371,188	13,12
371,552	13,08
371,915	13,06
372,278	13,06
372,642	13
373,005	12,98
373,368	12,95
373,731	12,89
374,094	12,9
374,457	12,91
374,82	13
375,183	13,02
375,546	12,96
375,909	12,87
376,272	12,84
376,635	12,9
376,998	12,91
377,361	12,92
377,723	12,96
378,086	12,94
378,449	12,92
378,811	12,93
379,174	12,88
379,537	12,9
379,899	12,84
380,262	12,82
380,624	12,73
380,987	12,7
381,349	12,68
381,711	12,73
382,074	12,72
382,436	12,7
382,798	12,79
383,16	12,7
383,522	12,68
383,884	12,62
384,247	12,57
384,609	12,57
384,971	12,53
385,333	12,5
385,695	12,5
386,056	12,52
386,418	12,48
386,78	12,58
387,142	12,5
387,504	12,48
387,865	12,44
388,227	12,46
388,589	12,52
388,95	12,56
389,312	12,51
389,673	12,55
390,035	12,52
390,396	12,43
390,758	12,47
391,119	12,51
391,48	12,5
391,842	12,52
392,203	12,55
392,564	12,57
392,925	12,57
393,286	12,59
393,648	12,59
394,009	12,62
394,37	12,55
394,731	12,62
395,092	12,67
395,452	12,72
395,813	12,72
396,174	12,7
396,535	12,68
396,896	12,62
397,257	12,6
397,617	12,58
397,978	12,61
398,338	12,58
398,699	12,57
399,06	12,69
399,42	12,63
399,781	12,61
400,141	12,59
400,501	12,59
400,862	12,6
401,222	12,59
401,582	12,6
401,943	12,59
402,303	12,56
402,663	12,52
403,023	12,5
403,383	12,51
403,743	12,5
404,103	12,49
404,463	12,54
404,823	12,53
405,183	12,52
405,543	12,47
405,903	12,5
406,262	12,51
406,622	12,47
406,982	12,48
407,342	12,49
407,701	12,49
408,061	12,49
408,42	12,46
408,78	12,46
409,139	12,44
409,499	12,42
409,858	12,46
410,217	12,47
410,577	12,46
410,936	12,45
411,295	12,43
411,655	12,47
412,014	12,48
412,373	12,45
412,732	12,46
413,091	12,48
413,45	12,49
413,809	12,53
414,168	12,5
414,527	12,54
414,886	12,56
415,245	12,58
415,603	12,59
415,962	12,6
416,321	12,6
416,679	12,61
417,038	12,64
417,397	12,65
417,755	12,67
418,114	12,67
418,472	12,68
418,831	12,7
419,189	12,71
419,547	12,71
419,906	12,73
420,264	12,74
420,622	12,75
420,981	12,78
421,339	12,79
421,697	12,8
422,055	12,82
422,413	12,82
422,771	12,84
423,129	12,85
423,487	12,88
423,845	12,91
424,203	12,91
424,56	12,96
424,918	12,97
425,276	12,99
425,634	13,02
425,991	13,05
426,349	13,09
426,707	13,13
427,064	13,16
427,422	13,18
427,779	13,24
428,137	13,3
428,494	13,34
428,851	13,4
429,209	13,47
429,566	13,54
429,923	13,6
430,28	13,65
430,637	13,72
430,995	13,7
431,352	13,74
431,709	13,77
432,066	13,79
432,423	13,82
432,78	13,87
433,137	13,93
433,493	14,01
433,85	14,09
434,207	14,08
434,564	14,13
434,92	14,22
435,277	14,26
435,634	14,33
435,99	14,36
436,347	14,42
436,703	14,47
437,06	14,51
437,416	14,59
437,773	14,65
438,129	14,67
438,485	14,76
438,841	14,8
439,198	14,85
439,554	14,87
439,91	14,92
440,266	14,96
440,622	15,01
440,978	15,04
441,334	15,05
441,69	15,11
442,046	15,16
442,402	15,19
442,758	15,24
443,113	15,26
443,469	15,31
443,825	15,35
444,181	15,39
444,536	15,44
444,892	15,45
445,247	15,48
445,603	15,54
445,958	15,56
446,314	15,59
446,669	15,62
447,025	15,65
447,38	15,67
447,735	15,7
448,09	15,71
448,446	15,74
448,801	15,76
449,156	15,81
449,511	15,85
449,866	15,89
450,221	15,93
450,576	15,99
450,931	16,06
451,286	16,08
451,641	16,1
451,995	16,12
452,35	16,17
452,705	16,19
453,06	16,2
453,414	16,25
453,769	16,26
454,123	16,29
454,478	16,33
454,832	16,4
455,187	16,4
455,541	16,42
455,896	16,43
456,25	16,44
456,604	16,47
456,958	16,49
457,313	16,49
457,667	16,51
458,021	16,51
458,375	16,54
458,729	16,58
459,083	16,6
459,437	16,64
459,791	16,64
460,145	16,68
460,499	16,71
460,852	16,7
461,206	16,74
461,56	16,75
461,914	16,76
462,267	16,76
462,621	16,8
462,974	16,82
463,328	16,85
463,681	16,9
464,035	16,92
464,388	16,94
464,742	16,95
465,095	16,96
465,448	17
465,801	16,99
466,155	16,98
466,508	17
466,861	17
467,214	17,02
467,567	17,01
467,92	17,01
468,273	17,03
468,626	17,02
468,979	17,05
469,332	17,03
469,684	17,03
470,037	17,02
470,39	17,02
470,743	17,02
471,095	17,01
471,448	17
471,8	17
472,153	17,01
472,505	17,01
472,858	17,01
473,21	17,01
473,562	17,01
473,915	16,99
474,267	16,99
474,619	16,98
474,971	16,98
475,324	16,96
475,676	17
476,028	16,99
476,38	16,97
476,732	16,96
477,084	16,97
477,436	16,98
477,787	16,98
478,139	16,98
478,491	17,01
478,843	17
479,195	17,01
479,546	17
479,898	17,03
480,249	17,09
480,601	17,18
480,952	17,21
481,304	17,23
481,655	17,24
482,007	17,23
482,358	17,23
482,709	17,23
483,061	17,22
483,412	17,23
483,763	17,23
484,114	17,26
484,465	17,26
484,816	17,26
485,167	17,28
485,518	17,28
485,869	17,28
486,22	17,3
486,571	17,31
486,922	17,33
487,272	17,34
487,623	17,34
487,974	17,32
488,324	17,34
488,675	17,35
489,025	17,36
489,376	17,38
489,726	17,4
490,077	17,43
490,427	17,44
490,778	17,46
491,128	17,49
491,478	17,5
491,828	17,53
492,179	17,56
492,529	17,58
492,879	17,61
493,229	17,65
493,579	17,67
493,929	17,71
494,279	17,75
494,629	17,76
494,979	17,79
495,328	17,82
495,678	17,83
496,028	17,87
496,378	17,93
496,727	17,99
497,077	18,04
497,426	18,11
497,776	18,16
498,125	18,21
498,475	18,25
498,824	18,32
499,174	18,35
499,523	18,41
499,872	18,46
500,221	18,53
500,571	18,59
500,92	18,64
501,269	18,7
501,618	18,73
501,967	18,78
502,316	18,86
502,665	18,92
503,014	19,01
503,363	19,09
503,711	19,18
504,06	19,26
504,409	19,33
504,758	19,37
505,106	19,47
505,455	19,56
505,803	19,66
506,152	19,71
506,5	19,81
506,849	19,9
507,197	19,96
507,546	20,04
507,894	20,11
508,242	20,23
508,59	20,31
508,939	20,41
509,287	20,52
509,635	20,6
509,983	20,69
510,331	20,78
510,679	20,87
511,027	20,94
511,375	21,03
511,723	21,13
512,07	21,24
512,418	21,33
512,766	21,45
513,114	21,54
513,461	21,63
513,809	21,75
514,156	21,86
514,504	22,01
514,851	22,14
515,199	22,28
515,546	22,39
515,893	22,49
516,241	22,62
516,588	22,73
516,935	22,84
517,282	22,93
517,63	23,01
517,977	23,1
518,324	23,21
518,671	23,28
519,018	23,39
519,365	23,46
519,711	23,56
520,058	23,61
520,405	23,7
520,752	23,8
521,099	23,89
521,445	23,98
521,792	24,08
522,138	24,22
522,485	24,35
522,832	24,51
523,178	24,64
523,524	24,75
523,871	24,85
524,217	24,96
524,563	25,12
524,91	25,29
525,256	25,5
525,602	25,66
525,948	25,77
526,294	25,85
526,64	25,93
526,986	25,98
527,332	26,03
527,678	26,07
528,024	26,12
528,37	26,19
528,716	26,24
529,061	26,29
529,407	26,34
529,753	26,39
530,098	26,44
530,444	26,51
530,789	26,57
531,135	26,62
531,48	26,65
531,826	26,7
532,171	26,74
532,516	26,77
532,862	26,81
533,207	26,85
533,552	26,91
533,897	26,95
534,242	27,02
534,587	27,09
534,932	27,14
535,277	27,18
535,622	27,19
535,967	27,25
536,312	27,29
536,657	27,32
537,001	27,36
537,346	27,4
537,691	27,43
538,035	27,49
538,38	27,54
538,724	27,6
539,069	27,62
539,413	27,64
539,758	27,65
540,102	27,69
540,446	27,71
540,791	27,72
541,135	27,75
541,479	27,76
541,823	27,76
542,167	27,78
542,512	27,82
542,856	27,82
543,2	27,83
543,543	27,84
543,887	27,86
544,231	27,89
544,575	27,92
544,919	27,94
545,262	27,96
545,606	27,97
545,95	27,98
546,293	28
546,637	28,01
546,98	28,05
547,324	28,03
547,667	28,09
548,011	28,1
548,354	28,1
548,697	28,1
549,04	28,14
549,384	28,14
549,727	28,12
550,07	28,18
550,413	28,17
550,756	28,18
551,099	28,19
551,442	28,18
551,785	28,2
552,128	28,21
552,47	28,22
552,813	28,22
553,156	28,24
553,499	28,27
553,841	28,26
554,184	28,25
554,526	28,29
554,869	28,25
555,211	28,24
555,554	28,23
555,896	28,22
556,238	28,19
556,581	28,19
556,923	28,18
557,265	28,15
557,607	28,11
557,949	28,11
558,291	28,07
558,633	28,07
558,975	28,04
559,317	28,03
559,659	27,99
560,001	27,97
560,343	27,94
560,685	27,89
561,026	27,89
561,368	27,84
561,71	27,79
562,051	27,77
562,393	27,8
562,734	27,75
563,076	27,71
563,417	27,67
563,759	27,65
564,1	27,61
564,441	27,59
564,782	27,56
565,124	27,51
565,465	27,5
565,806	27,46
566,147	27,41
566,488	27,36
566,829	27,33
567,17	27,28
567,511	27,22
567,851	27,19
568,192	27,13
568,533	27,09
568,874	27,04
569,214	26,98
569,555	26,86
569,895	26,81
570,236	26,78
570,576	26,72
570,917	26,63
571,257	26,58
571,598	26,51
571,938	26,48
572,278	26,44
572,618	26,38
572,959	26,33
573,299	26,28
573,639	26,22
573,979	26,17
574,319	26,12
574,659	26,1
574,999	26,05
575,339	26,02
575,678	25,97
576,018	25,93
576,358	25,88
576,698	25,86
577,037	25,82
577,377	25,75
577,716	25,71
578,056	25,71
578,395	25,63
578,735	25,59
579,074	25,53
579,413	25,45
579,753	25,4
580,092	25,3
580,431	25,24
580,77	25,23
581,109	25,17
581,448	25,13
581,787	25,08
582,126	24,97
582,465	24,9
582,804	24,87
583,143	24,84
583,482	24,76
583,82	24,72
584,159	24,68
584,498	24,66
584,836	24,64
585,175	24,58
585,514	24,51
585,852	24,44
586,19	24,43
586,529	24,41
586,867	24,37
587,205	24,36
587,544	24,35
587,882	24,32
588,22	24,28
588,558	24,28
588,896	24,25
589,234	24,28
589,572	24,3
589,91	24,32
590,248	24,29
590,586	24,3
590,924	24,32
591,262	24,3
591,599	24,29
591,937	24,26
592,275	24,25
592,612	24,3
592,95	24,29
593,287	24,29
593,625	24,27
593,962	24,25
594,299	24,24
594,637	24,24
594,974	24,23
595,311	24,25
595,648	24,26
595,985	24,25
596,322	24,23
596,659	24,24
596,996	24,21
597,333	24,17
597,67	24,13
598,007	24,11
598,344	24,1
598,681	24,13
599,017	24,06
599,354	24,01
599,691	24
600,027	23,99
600,364	23,94
600,7	23,93
601,037	23,92
601,373	23,91
601,71	23,86
602,046	23,81
602,382	23,76
602,718	23,73
603,054	23,68
603,391	23,66
603,727	23,59
604,063	23,58
604,399	23,57
604,735	23,59
605,071	23,55
605,406	23,54
605,742	23,51
606,078	23,54
606,414	23,52
606,749	23,47
607,085	23,43
607,421	23,41
607,756	23,37
608,092	23,31
608,427	23,25
608,762	23,22
609,098	23,22
609,433	23,17
609,768	23,11
610,104	23,09
610,439	23,06
610,774	23,07
611,109	22,96
611,444	22,95
611,779	22,93
612,114	22,89
612,449	22,83
612,784	22,73
613,118	22,68
613,453	22,68
613,788	22,63
614,123	22,55
614,457	22,56
614,792	22,54
615,126	22,51
615,461	22,48
615,795	22,48
616,13	22,39
616,464	22,39
616,798	22,35
617,132	22,3
617,467	22,26
617,801	22,2
618,135	22,2
618,469	22,13
618,803	22,08
619,137	22,07
619,471	22,05
619,805	22
620,139	21,98
620,472	21,96
620,806	21,94
621,14	21,91
621,473	21,85
621,807	21,79
622,141	21,83
622,474	21,8
622,808	21,78
623,141	21,76
623,474	21,74
623,808	21,69
624,141	21,69
624,474	21,7
624,807	21,67
625,141	21,7
625,474	21,73
625,807	21,71
626,14	21,68
626,473	21,69
626,806	21,71
627,138	21,7
627,471	21,66
627,804	21,65
628,137	21,7
628,469	21,65
628,802	21,65
629,135	21,63
629,467	21,61
629,8	21,57
630,132	21,59
630,465	21,6
630,797	21,64
631,129	21,62
631,461	21,62
631,794	21,69
632,126	21,61
632,458	21,54
632,79	21,5
633,122	21,53
633,454	21,48
633,786	21,45
634,118	21,46
634,45	21,46
634,781	21,48
635,113	21,44
635,445	21,47
635,777	21,46
636,108	21,4
636,44	21,42
636,771	21,48
637,103	21,38
637,434	21,35
637,765	21,33
638,097	21,43
638,428	21,37
638,759	21,24
639,09	21,28
639,422	21,32
639,753	21,36
640,084	21,31
640,415	21,29
640,746	21,32
641,077	21,22
641,407	21,15
641,738	21,07
642,069	21,02
642,4	20,98
642,73	20,98
643,061	20,94
643,392	20,85
643,722	20,78
644,053	20,83
644,383	20,79
644,713	20,75
645,044	20,54
645,374	20,55
645,704	20,58
646,034	20,51
646,365	20,46
646,695	20,41
647,025	20,41
647,355	20,32
647,685	20,19
648,015	20,17
648,344	20,21
648,674	20,19
649,004	20,15
649,334	20,12
649,663	20,04
649,993	20,06
650,323	19,99
650,652	19,9
650,982	19,83
651,311	19,75
651,64	19,68
651,97	19,65
652,299	19,56
652,628	19,47
652,958	19,44
653,287	19,46
653,616	19,35
653,945	19,22
654,274	19,28
654,603	19,26
654,932	19,22
655,261	19,11
655,589	19,04
655,918	18,98
656,247	18,89
656,576	18,83
656,904	18,68
657,233	18,71
657,561	18,62
657,89	18,61
658,218	18,58
658,547	18,55
658,875	18,54
659,203	18,51
659,532	18,42
659,86	18,35
660,188	18,21
660,516	18,2
660,844	18,16
661,172	18,11
661,5	18,03
661,828	17,97
662,156	17,9
662,484	17,83
662,811	17,73
663,139	17,69
663,467	17,65
663,794	17,63
664,122	17,5
664,45	17,48
664,777	17,35
665,104	17,38
665,432	17,22
665,759	17,08
666,086	17,02
666,414	16,94
666,741	16,88
667,068	16,82
667,395	16,71
667,722	16,73
668,049	16,66
668,376	16,6
668,703	16,57
669,03	16,56
669,357	16,5
669,683	16,48
670,01	16,41
670,337	16,29
670,663	16,29
670,99	16,27
671,317	16,21
671,643	16,27
671,969	16,14
672,296	16,19
672,622	16,29
672,948	16,29
673,275	16,3
673,601	16,31
673,927	16,29
674,253	16,29
674,579	16,25
674,905	16,2
675,231	16,22
675,557	16,18
675,883	16,18
676,209	16,24
676,534	16,2
676,86	16,27
677,186	16,28
677,511	16,31
677,837	16,36
678,162	16,39
678,488	16,29
678,813	16,28
679,139	16,27
679,464	16,2
679,789	16,19
680,114	16,27
680,44	16,36
680,765	16,39
681,09	16,43
681,415	16,44
681,74	16,46
682,065	16,55
682,39	16,63
682,714	16,75
683,039	16,74
683,364	16,84
683,689	16,82
684,013	16,91
684,338	16,93
684,662	17
684,987	17,09
685,311	17,27
685,636	17,39
685,96	17,5
686,284	17,66
686,608	17,79
686,933	17,88
687,257	17,95
687,581	18,18
687,905	18,27
688,229	18,4
688,553	18,55
688,877	18,68
689,201	18,81
689,524	18,9
689,848	19,13
690,172	19,31
690,496	19,58
690,819	19,77
691,143	19,99
691,466	20,19
691,79	20,48
692,113	20,71
692,436	20,83
692,76	21,11
693,083	21,32
693,406	21,62
693,729	21,88
694,053	22,15
694,376	22,33
694,699	22,61
695,022	22,99
695,344	23,32
695,667	23,63
695,99	23,99
696,313	24,24
696,636	24,48
696,958	24,79
697,281	24,98
697,604	25,25
697,926	25,42
698,249	25,76
698,571	25,83
698,893	25,96
699,216	26,2
699,538	26,45
699,86	26,58
700,182	26,72
700,504	26,99
700,827	27,2
701,149	27,4
701,471	27,7
701,793	27,9
702,114	28,22
702,436	28,53
702,758	28,89
703,08	29,23
703,401	29,62
703,723	29,91
704,045	30,3
704,366	30,64
704,688	31,02
705,009	31,15
705,331	31,62
705,652	32,02
705,973	32,36
706,294	32,58
706,616	32,99
706,937	33,25
707,258	33,46
707,579	33,8
707,9	34,16
708,221	34,44
708,542	34,78
708,863	35,04
709,183	35,31
709,504	35,58
709,825	35,91
710,145	36,17
710,466	36,36
710,787	36,64
711,107	36,91
711,427	37,25
711,748	37,54
712,068	37,85
712,388	38,22
712,709	38,51
713,029	38,88
713,349	39,18
713,669	39,51
713,989	39,74
714,309	40,06
714,629	40,38
714,949	40,74
715,269	41,05
715,589	41,38
715,908	41,75
716,228	42,03
716,548	42,4
716,867	42,67
717,187	43,03
717,506	43,34
717,826	43,78
718,145	44,01
718,465	44,34
718,784	44,58
719,103	44,9
719,422	45,31
719,741	45,61
720,061	46,09
720,38	46,57
720,699	47,01
721,018	47,27
721,336	47,58
721,655	47,83
721,974	48,18
722,293	48,51
722,612	48,79
722,93	49,14
723,249	49,41
723,567	49,85
723,886	50,25
724,204	50,72
724,523	51,11
724,841	51,55
725,159	51,96
725,477	52,31
725,796	52,55
726,114	52,93
726,432	53,36
726,75	53,54
727,068	53,81
727,386	54,27
727,704	54,8
728,022	55,11
728,339	55,65
728,657	55,89
728,975	56,45
729,292	56,81
729,61	57,17
729,928	57,41
730,245	57,8
730,562	58,19
730,88	58,44
731,197	58,63
731,514	58,89
731,832	59,22
732,149	59,52
732,466	59,87
732,783	60,08
733,1	60,33
733,417	60,61
733,734	60,87
734,051	61,07
734,368	61,28
734,684	61,65
735,001	61,78
735,318	62,02
735,634	62,2
735,951	62,69
736,268	62,91
736,584	63,38
736,9	63,55
737,217	63,78
737,533	64,05
737,849	64,48
738,166	64,75
738,482	64,91
738,798	65,3
739,114	65,69
739,43	65,76
739,746	65,86
740,062	66,16
740,378	66,44
740,693	66,59
741,009	66,71
741,325	66,84
741,641	67,06
741,956	67,35
742,272	67,38
742,587	67,46
742,903	67,66
743,218	67,71
743,533	67,89
743,849	68,06
744,164	68,22
744,479	68,28
744,794	68,41
745,109	68,56
745,424	68,46
745,739	68,41
746,054	68,7
746,369	68,86
746,684	69,08
746,999	69,25
747,313	69,41
747,628	69,43
747,943	69,63
748,257	69,74
748,572	69,89
748,886	70,09
749,201	69,99
749,515	70,07
749,829	70,23
750,144	70,43
750,458	70,62
750,772	70,81
751,086	70,94
751,4	70,91
751,714	70,99
752,028	71,13
752,342	71,09
752,656	71,17
752,97	71,25
753,284	71,28
753,597	71,3
753,911	71,48
754,225	71,64
754,538	71,64
754,852	71,8
755,165	71,89
755,478	71,77
755,792	71,99
756,105	72,14
756,418	72,17
756,731	72,25
757,045	72,34
757,358	72,31
757,671	72,28
757,984	72,52
758,297	72,6
758,609	72,56
758,922	72,57
759,235	72,78
759,548	72,81
759,86	72,86
760,173	72,87
760,486	72,89
760,798	73,07
761,111	73,07
761,423	73,02
761,735	72,94
762,048	73
762,36	73,04
762,672	72,96
762,984	72,94
763,296	72,89
763,608	72,83
763,92	72,89
764,232	72,82
764,544	72,83
764,856	72,86
765,168	72,93
765,48	73,05
765,791	73,05
766,103	73,19
766,414	73,24
766,726	73,24
767,037	73,19
767,349	73,14
767,66	73,25
767,972	73,34
768,283	73,58
768,594	73,61
768,905	73,42
769,216	73,68
769,527	73,95
769,838	74,27
770,149	74,35
770,46	74,21
770,771	74,25
771,082	74,28
771,393	74,48
771,703	74,83
772,014	74,64
772,324	74,45
772,635	74,21
772,945	74,13
773,256	74,02
773,566	74,11
773,877	73,93
774,187	73,61
774,497	73,49
774,807	73,42
775,117	73,7
775,427	73,86
775,737	73,56
776,047	72,97
776,357	72,57
776,667	72,4
776,977	72,59
777,287	72,73
777,596	72,79
777,906	72,47
778,216	72,1
778,525	72,42
778,835	72,53
779,144	73,15
779,453	72,96
779,763	73,34
780,072	73,37
780,381	73,37
780,69	73,4
781	73,25
781,309	73,1
781,618	72,88
781,927	72,79
782,235	72,96
782,544	73,42
782,853	73,42
783,162	73,49
783,471	73,13
783,779	73,03
784,088	73,15
784,396	73,51
784,705	73,93
785,013	74
785,322	74,02
785,63	73,63
785,938	73,95
786,246	73,71
786,554	73,61
786,863	73,65
787,171	73,74
787,479	73,68
787,787	73,72
788,094	73,91
788,402	73,89
788,71	74,02
789,018	73,87
789,326	73,88
789,633	73,73
789,941	73,86
790,248	73,84
790,556	73,71
790,863	73,54
791,171	73,48
791,478	73,57
791,785	73,7
792,092	73,53
792,399	73,29
792,707	73,22
793,014	73,22
793,321	73,19
793,628	73,6
793,934	73,98
794,241	74,04
794,548	74,01
794,855	74,17
795,161	74,08
795,468	74,12
795,775	74,21
796,081	74,43
796,388	75
796,694	75,19
797	75,21
797,307	75,25
797,613	75,32
797,919	75,07
798,225	74,91
798,531	75,15
798,837	75,33
799,143	75,78
799,449	75,92
799,755	75,99
800,061	76
800,367	75,8
800,672	75,76
800,978	75,61
801,284	75,55
801,589	75,42
801,895	75,74
802,2	75,86
802,506	75,71
802,811	75,34
803,116	75,32
803,421	75,63
803,727	75,65
804,032	75,51
804,337	75,66
804,642	75,74
804,947	75,7
805,252	75,57
805,556	74,86
805,861	74,64
806,166	74,42
806,471	73,87
806,775	74
807,08	74,07
807,384	73,88
807,689	73,83
807,993	73,7
808,298	73,56
808,602	73,47
808,906	73,86
809,211	73,92
809,515	73,91
809,819	74,04
810,123	74,18
810,427	74,38
810,731	74,76
811,035	74,86
811,338	75,05
811,642	75,02
811,946	75,3
812,25	75,81
812,553	76,14
812,857	76,86
813,16	77,21
813,464	77,42
813,767	77,94
814,07	77,74
814,374	78,15
814,677	78,45
814,98	78,27
815,283	78,04
815,586	77,81
815,889	77,73
816,192	77,19
816,495	77,17
816,798	77,1
817,101	76,49
817,404	76,6
817,706	76,19
818,009	76,39
818,312	76,77
818,614	76,19
818,917	75,85
819,219	75,51
819,521	75,17
819,824	74,81
820,126	74,7
820,428	74,88
820,73	74,73
821,032	74,52
821,334	74,59
821,636	74,59
821,938	74,64
822,24	74,5
822,542	74,48
822,844	74,44
823,145	74,32
823,447	74,36
823,749	74,32
824,05	74,31
824,352	74,18
824,653	74,16
824,955	74,23
825,256	74,2
825,557	74,26
825,858	74,28
826,16	74,33
826,461	74,37
826,762	74,26
827,063	74,25
827,364	74,23
827,665	74,08
827,965	74,03
828,266	74,01
828,567	74,26
828,868	74,43
829,168	74,47
829,469	74,57
829,769	74,51
830,07	74,54
830,37	74,45
830,67	74,64
830,971	74,44
831,271	74,43
831,571	74,41
831,871	74,08
832,171	74,13
832,471	74,29
832,771	74,33
833,071	74,39
833,371	74,43
833,671	74,58
833,971	75,01
834,27	75,05
834,57	75,03
834,869	74,89
835,169	74,89
835,468	74,82
835,768	74,85
836,067	74,86
836,367	74,96
836,666	75,1
836,965	75,19
837,264	75,57
837,563	75,63
837,862	75,95
838,161	76,45
838,46	76,51
838,759	76,34
839,058	76,07
839,356	76,16
839,655	76,49
839,954	76,96
840,252	76,51
840,551	76,6
840,849	76,57
841,148	76,86
841,446	75,73
841,744	75,8
842,043	75,94
842,341	76,06
842,639	75,75
842,937	76,2
843,235	76,89
843,533	76,7
843,831	77,21
844,129	77,65
844,427	77,18
844,724	76,45
845,022	77,29
845,32	78,15
845,617	78,34
845,915	77,86
846,212	76,94
846,51	76,53
846,807	75,37
847,104	74,97
847,402	73,98
847,699	74,73
847,996	73,42
848,293	73,42
848,59	73,31
848,887	73,79
849,184	74,09
849,481	72,87
849,778	72,08
850,074	70,49
850,371	69,75
850,668	69,25
850,964	69,22
851,261	68,93
851,557	68,5
851,854	67,98
852,15	68,05
852,446	69,82
852,743	72,07
853,039	73,66
853,335	74,04
853,631	74,91
853,927	76,35
854,223	78,58
854,519	78,24
854,815	76,85
855,111	76,32
855,406	76,55
855,702	76,66
855,998	77,95
856,293	78,5
856,589	78,68
856,884	79,63
857,18	79,84
857,475	79,21
857,77	80,36
858,066	81,99
858,361	83,39
858,656	84,21
858,951	83,51
859,246	82,2
859,541	82,1
859,836	82,15
860,131	80,04
860,426	80,62
860,72	82,5
861,015	85,21
861,31	84,05
861,604	83,34
861,899	85,72
862,193	84,37
862,487	83,23
862,782	84,27
863,076	85,28
863,37	85,4
863,664	85,09
863,959	82,15
864,253	80,97
864,547	81,58
864,841	80,72
865,135	78,64
865,428	78,86
865,722	77,54
866,016	76,89
866,31	77,31
866,603	75,5
866,897	73,84
867,19	73,63
867,484	73,32
867,777	72,46
868,07	70,63
868,364	71,26
868,657	73,27
868,95	74,45
869,243	74,64
869,536	75,46
869,829	76,76
870,122	80,43
870,415	81,75
870,708	80,21
871	79,47
871,293	81,22
871,586	82,36
871,878	82,15
872,171	82,09
872,463	83,81
872,756	83,88
873,048	85,2
873,341	85,32
873,633	87,26
873,925	88,58
874,217	89,63
874,509	89,86
874,801	89,46
875,093	86,59
875,385	85,61
875,677	87,25
875,969	87,38
